%OpenBCI Raw EEG Data
%
%Sample Rate = 200.0 Hz
%First Column = SampleIndex
%Last Column = Timestamp 
%Other Columns = EEG data in microvolts followed by Accel Data (in G) interleaved with Aux Data
0, 8.08, 11.53, 10.10, 8.01, 0.000, 0.000, 0.000, 16:16:15.643
1, 12.48, 12.96, 16.59, 12.49, 0.000, 0.000, 0.000, 16:16:15.665
2, 8.88, 12.92, 13.53, 16.41, 0.000, 0.000, 0.000, 16:16:15.665
3, 13.12, 14.59, 13.52, 20.20, 0.000, 0.000, 0.000, 16:16:15.666
4, 4.82, 9.73, 12.47, 10.43, 0.000, 0.000, 0.000, 16:16:15.667
5, 11.58, 14.65, 10.64, 9.28, -0.032, 0.016, -1.040, 16:16:15.686
6, 11.44, 17.53, 7.43, 13.88, -0.032, 0.016, -1.040, 16:16:15.687
7, 9.41, 13.53, 10.45, 14.27, -0.032, 0.016, -1.040, 16:16:15.688
8, 12.91, 12.28, 12.29, 13.33, -0.032, 0.016, -1.040, 16:16:15.688
9, 12.64, 13.04, 15.00, 13.21, -0.032, 0.016, -1.040, 16:16:15.708
10, 12.78, 15.06, 13.48, 16.25, -0.032, 0.016, -1.040, 16:16:15.708
11, 11.23, 15.47, 13.87, 11.52, -0.032, 0.016, -1.040, 16:16:15.709
12, 13.51, 18.76, 15.60, 17.95, -0.032, 0.016, -1.040, 16:16:15.709
13, 2.79, 7.36, 5.97, 7.09, -0.032, 0.016, -1.040, 16:16:15.731
14, 12.21, 13.92, 11.77, 11.17, -0.032, 0.016, -1.040, 16:16:15.732
15, 10.65, 13.21, 12.62, 8.31, -0.032, 0.016, -1.040, 16:16:15.732
16, 10.52, 9.72, 9.09, 9.81, -0.032, 0.016, -1.040, 16:16:15.732
17, 6.95, 13.39, 7.45, 9.15, -0.032, 0.016, -1.040, 16:16:15.753
18, 10.80, 13.89, 11.44, 13.39, -0.032, 0.016, -1.040, 16:16:15.754
19, 9.74, 15.21, 13.02, 12.29, -0.032, 0.016, -1.040, 16:16:15.754
20, 9.42, 11.49, 11.58, 12.91, -0.032, 0.016, -1.040, 16:16:15.754
21, 20.00, 17.63, 19.51, 15.11, -0.032, 0.016, -1.040, 16:16:15.776
22, 6.53, 12.75, 5.00, 5.43, -0.032, 0.016, -1.040, 16:16:15.777
23, 8.39, 16.73, 12.27, 11.60, -0.032, 0.016, -1.040, 16:16:15.778
24, 8.11, 13.86, 13.10, 14.27, -0.032, 0.016, -1.040, 16:16:15.778
25, 12.96, 15.60, 11.65, 14.87, -0.032, 0.000, -1.056, 16:16:15.799
26, 8.21, 15.12, 11.52, 11.34, -0.032, 0.000, -1.056, 16:16:15.800
27, 9.39, 16.89, 12.66, 14.89, -0.032, 0.000, -1.056, 16:16:15.801
28, 6.63, 13.06, 10.60, 11.17, -0.032, 0.000, -1.056, 16:16:15.801
29, 9.60, 15.26, 14.61, 14.03, -0.032, 0.000, -1.056, 16:16:15.822
30, 21.30, 17.73, 22.65, 18.98, -0.032, 0.000, -1.056, 16:16:15.822
31, 2.13, 6.91, 4.62, 5.74, -0.032, 0.000, -1.056, 16:16:15.823
32, 8.85, 14.24, 9.56, 10.30, -0.032, 0.000, -1.056, 16:16:15.823
33, 10.29, 15.67, 8.19, 15.60, -0.032, 0.000, -1.056, 16:16:15.849
34, 9.97, 16.26, 14.14, 16.99, -0.032, 0.000, -1.056, 16:16:15.850
35, 7.68, 13.53, 8.37, 15.23, -0.032, 0.000, -1.056, 16:16:15.852
36, 9.83, 15.44, 11.98, 13.20, -0.032, 0.000, -1.056, 16:16:15.852
37, 11.70, 16.12, 11.82, 15.90, -0.032, 0.000, -1.056, 16:16:15.867
38, 9.34, 17.33, 11.53, 13.64, -0.032, 0.000, -1.056, 16:16:15.867
39, 16.21, 18.97, 19.09, 22.08, -0.032, 0.000, -1.056, 16:16:15.867
40, 4.14, 8.63, 5.00, 6.75, -0.032, 0.000, -1.056, 16:16:15.867
41, 8.36, 17.11, 12.04, 15.64, -0.032, 0.000, -1.056, 16:16:15.887
42, 13.72, 14.99, 14.77, 11.61, -0.032, 0.000, -1.056, 16:16:15.888
43, 7.84, 11.09, 12.75, 13.67, -0.032, 0.000, -1.056, 16:16:15.888
44, 9.57, 14.80, 9.48, 10.14, -0.032, 0.000, -1.056, 16:16:15.889
45, 12.47, 17.03, 13.06, 11.91, -0.032, 0.016, -1.040, 16:16:15.912
46, 12.37, 15.77, 9.34, 9.76, -0.032, 0.016, -1.040, 16:16:15.913
47, 7.81, 11.96, 9.47, 10.70, -0.032, 0.016, -1.040, 16:16:15.913
48, 14.46, 22.68, 13.98, 14.50, -0.032, 0.016, -1.040, 16:16:15.913
49, 7.89, 7.12, 7.43, 5.02, -0.032, 0.016, -1.040, 16:16:15.934
50, 11.83, 13.13, 9.40, 12.44, -0.032, 0.016, -1.040, 16:16:15.935
51, 7.16, 14.98, 10.80, 11.07, -0.032, 0.016, -1.040, 16:16:15.935
52, 13.24, 12.03, 12.90, 10.72, -0.032, 0.016, -1.040, 16:16:15.935
53, 7.09, 14.69, 10.64, 13.95, -0.032, 0.016, -1.040, 16:16:15.956
54, 11.72, 14.63, 13.52, 13.45, -0.032, 0.016, -1.040, 16:16:15.956
55, 10.46, 16.16, 9.02, 12.27, -0.032, 0.016, -1.040, 16:16:15.978
56, 7.77, 15.45, 11.59, 10.64, -0.032, 0.016, -1.040, 16:16:15.978
57, 16.43, 21.49, 17.45, 16.17, -0.032, 0.016, -1.040, 16:16:15.979
58, 1.79, 9.73, 4.52, 11.07, -0.032, 0.016, -1.040, 16:16:15.979
59, 13.15, 11.27, 11.38, 9.82, -0.032, 0.016, -1.040, 16:16:16.001
60, 8.76, 13.62, 8.09, 13.62, -0.032, 0.016, -1.040, 16:16:16.002
61, 8.60, 15.92, 14.19, 10.84, -0.032, 0.016, -1.040, 16:16:16.002
62, 10.81, 11.83, 14.63, 10.81, -0.032, 0.016, -1.040, 16:16:16.003
63, 7.56, 12.44, 11.98, 15.88, -0.032, 0.016, -1.040, 16:16:16.027
64, 10.05, 12.47, 11.61, 12.58, -0.032, 0.016, -1.040, 16:16:16.028
65, 11.10, 18.03, 10.92, 9.69, -0.032, 0.016, -1.040, 16:16:16.028
66, 7.90, 13.29, 7.20, 7.33, -0.032, 0.016, -1.040, 16:16:16.028
71, 4.23, 9.12, 3.13, 4.47, -0.032, 0.016, -1.040, 16:16:16.047
72, 4.26, 14.09, 5.94, 3.84, -0.032, 0.016, -1.040, 16:16:16.048
73, 4.02, 12.06, 9.01, 3.45, -0.032, 0.016, -1.040, 16:16:16.048
74, 8.52, 13.50, 5.71, 8.19, -0.032, 0.016, -1.040, 16:16:16.049
75, 12.96, 14.87, 11.06, 8.18, -0.032, 0.016, -1.040, 16:16:16.068
76, -1.59, 6.05, 1.66, -0.70, -0.032, 0.016, -1.040, 16:16:16.068
77, 5.62, 14.16, 7.86, 6.94, -0.032, 0.016, -1.040, 16:16:16.069
78, 7.59, 12.32, 4.02, 0.52, -0.032, 0.016, -1.040, 16:16:16.069
79, 6.10, 13.14, 6.22, 3.20, -0.032, 0.016, -1.040, 16:16:16.090
80, 4.05, 8.35, 2.42, -0.51, -0.032, 0.016, -1.040, 16:16:16.090
81, 10.65, 15.13, 10.35, 4.83, -0.032, 0.016, -1.040, 16:16:16.090
82, 5.41, 14.92, 8.31, 4.66, -0.032, 0.016, -1.040, 16:16:16.091
83, 5.55, 13.95, 2.27, 5.48, -0.032, 0.016, -1.040, 16:16:16.112
84, 9.28, 19.41, 11.03, 11.22, -0.032, 0.016, -1.040, 16:16:16.113
85, -0.45, 6.46, 1.39, 3.65, -0.032, 0.016, -1.040, 16:16:16.113
86, 7.30, 14.92, 3.37, 7.67, -0.032, 0.016, -1.040, 16:16:16.113
89, 8.53, 17.06, 0.39, 11.18, -0.032, 0.016, -1.040, 16:16:16.135
90, 14.36, 20.76, 7.73, 8.05, -0.032, 0.016, -1.040, 16:16:16.135
91, 8.04, 13.08, 1.66, 4.62, -0.032, 0.016, -1.040, 16:16:16.158
92, 8.29, 18.43, 2.72, 3.31, -0.032, 0.016, -1.040, 16:16:16.158
93, 18.53, 22.75, 7.30, 12.67, -0.032, 0.016, -1.040, 16:16:16.161
94, 3.38, 12.04, -2.66, 4.18, -0.032, 0.016, -1.040, 16:16:16.162
95, 8.34, 18.32, 5.03, 5.93, -0.032, 0.016, -1.040, 16:16:16.180
96, 7.76, 13.32, 1.60, 2.55, -0.032, 0.016, -1.040, 16:16:16.180
97, 13.54, 16.48, 1.12, 8.30, -0.032, 0.016, -1.040, 16:16:16.181
98, 8.99, 20.05, 1.56, 6.45, -0.032, 0.016, -1.040, 16:16:16.182
99, 8.81, 16.48, 4.93, 7.96, -0.032, 0.016, -1.040, 16:16:16.203
100, 5.42, 14.92, -1.33, 7.39, -0.032, 0.016, -1.040, 16:16:16.204
101, 9.58, 18.70, 4.39, 7.33, -0.032, 0.016, -1.040, 16:16:16.204
102, 10.02, 12.63, 1.13, 3.81, -0.032, 0.016, -1.040, 16:16:16.205
107, 9.45, 5.41, 0.55, 3.29, -0.032, 0.016, -1.040, 16:16:16.225
108, 8.31, 8.78, 1.89, 4.28, -0.032, 0.016, -1.040, 16:16:16.226
109, 8.57, 12.07, 5.46, 5.34, -0.032, 0.016, -1.040, 16:16:16.226
110, 11.04, 10.51, 7.49, 4.02, -0.032, 0.016, -1.040, 16:16:16.227
111, 19.24, 15.82, 5.38, 5.64, -0.032, 0.016, -1.040, 16:16:16.248
112, 1.42, 4.52, -6.88, -2.80, -0.032, 0.016, -1.040, 16:16:16.249
113, 8.67, 10.21, 4.83, 7.67, -0.032, 0.016, -1.040, 16:16:16.249
114, 7.53, 11.76, 4.75, 2.12, -0.032, 0.016, -1.040, 16:16:16.250
115, 12.34, 6.67, -2.17, 1.08, -0.032, 0.016, -1.040, 16:16:16.270
116, 9.31, 9.60, -5.28, -1.13, -0.032, 0.016, -1.040, 16:16:16.270
117, 11.11, 11.72, -0.20, 6.33, -0.032, 0.016, -1.040, 16:16:16.271
118, 12.91, 9.98, 0.12, 6.48, -0.032, 0.016, -1.040, 16:16:16.271
119, 12.04, 10.32, 1.39, 1.44, -0.032, 0.016, -1.040, 16:16:16.293
120, 16.02, 14.28, 7.85, 9.07, -0.032, 0.016, -1.040, 16:16:16.293
121, 1.29, 6.97, -0.90, -5.18, -0.032, 0.016, -1.040, 16:16:16.294
122, 9.82, 9.64, 8.04, 1.89, -0.032, 0.016, -1.040, 16:16:16.294
125, 12.27, 10.16, 8.96, -1.99, -0.032, 0.016, -1.040, 16:16:16.315
126, 17.24, 10.39, 13.41, 2.53, -0.032, 0.016, -1.040, 16:16:16.315
127, 7.67, 12.23, 9.18, -1.34, -0.032, 0.016, -1.040, 16:16:16.316
128, 9.17, 6.36, 5.44, -1.03, -0.032, 0.016, -1.040, 16:16:16.316
129, 18.05, 19.34, 12.58, 5.34, -0.032, 0.016, -1.040, 16:16:16.338
130, 11.01, 5.00, 3.32, -4.80, -0.032, 0.016, -1.040, 16:16:16.338
131, 11.50, 9.85, 6.04, -2.12, -0.032, 0.016, -1.040, 16:16:16.339
132, 13.38, 10.43, 3.58, -2.76, -0.032, 0.016, -1.040, 16:16:16.339
133, 15.43, 8.95, 8.80, 1.45, -0.032, 0.016, -1.040, 16:16:16.360
134, 13.43, 7.89, 6.01, -3.00, -0.032, 0.016, -1.040, 16:16:16.362
135, 11.20, 13.89, 9.32, 0.92, -0.032, 0.016, -1.040, 16:16:16.366
136, 13.59, 9.21, 6.19, 4.22, -0.032, 0.016, -1.040, 16:16:16.367
137, 12.50, 8.53, 8.21, -0.48, -0.032, 0.016, -1.040, 16:16:16.383
138, 19.54, 17.18, 16.58, 3.78, -0.032, 0.016, -1.040, 16:16:16.383
139, 6.59, 4.96, 1.17, -4.39, -0.032, 0.016, -1.040, 16:16:16.384
140, 12.42, 9.48, 8.85, -0.26, -0.032, 0.016, -1.040, 16:16:16.384
143, 5.70, 6.34, 9.82, -0.28, -0.032, 0.016, -1.040, 16:16:16.405
144, 9.67, 7.60, 10.84, 1.68, -0.032, 0.016, -1.040, 16:16:16.406
145, 5.38, 13.61, 7.85, -0.93, -0.032, 0.016, -1.040, 16:16:16.406
146, 4.41, 10.93, 15.18, 3.91, -0.032, 0.016, -1.040, 16:16:16.406
147, 12.93, 13.37, 14.34, 10.06, -0.032, 0.016, -1.040, 16:16:16.428
148, -1.10, 1.80, 4.95, -7.19, -0.032, 0.016, -1.040, 16:16:16.428
149, 10.51, 10.23, 5.30, 0.78, -0.032, 0.016, -1.040, 16:16:16.428
150, 5.19, 14.01, 9.06, 3.23, -0.032, 0.016, -1.040, 16:16:16.429
151, 4.85, 9.99, 6.83, 1.18, -0.032, 0.016, -1.040, 16:16:16.450
152, 3.59, 6.08, 3.33, -0.63, -0.032, 0.016, -1.040, 16:16:16.451
153, 12.11, 8.79, 12.69, 3.39, -0.032, 0.016, -1.040, 16:16:16.451
154, 7.07, 12.10, 11.10, 5.18, -0.032, 0.016, -1.040, 16:16:16.451
155, 5.67, 6.65, 11.01, -0.15, -0.032, 0.016, -1.040, 16:16:16.473
156, 11.14, 13.74, 14.10, 7.80, -0.032, 0.016, -1.040, 16:16:16.473
157, 3.53, 5.81, 3.38, -0.92, -0.032, 0.016, -1.040, 16:16:16.473
158, 4.24, 11.80, 9.64, 2.28, -0.032, 0.016, -1.040, 16:16:16.473
161, 3.39, 12.74, 2.95, 2.78, -0.032, 0.016, -1.040, 16:16:16.495
162, 6.63, 15.61, 11.99, 5.49, -0.032, 0.016, -1.040, 16:16:16.496
163, 5.16, 15.41, 9.28, 2.74, -0.032, 0.016, -1.040, 16:16:16.496
164, 2.31, 11.25, 8.79, -0.50, -0.032, 0.016, -1.040, 16:16:16.496
165, 13.35, 20.39, 21.12, 14.74, -0.016, 0.016, -1.056, 16:16:16.518
166, 1.32, 5.99, 3.84, -1.24, -0.016, 0.016, -1.056, 16:16:16.518
167, 3.48, 14.28, 6.76, 2.43, -0.016, 0.016, -1.056, 16:16:16.519
168, 3.98, 13.39, 9.98, 1.76, -0.016, 0.016, -1.056, 16:16:16.519
169, 5.74, 13.14, 8.28, 2.77, -0.016, 0.016, -1.056, 16:16:16.540
170, 7.23, 15.21, 8.59, 7.05, -0.016, 0.016, -1.056, 16:16:16.540
171, 5.44, 16.99, 12.02, 2.40, -0.016, 0.016, -1.056, 16:16:16.540
172, 2.27, 15.88, 8.28, -1.67, -0.016, 0.016, -1.056, 16:16:16.541
173, 6.41, 16.50, 11.72, 8.54, -0.016, 0.016, -1.056, 16:16:16.562
174, 15.51, 19.85, 15.55, 13.71, -0.016, 0.016, -1.056, 16:16:16.563
175, 0.55, 7.68, 9.01, 0.53, -0.016, 0.016, -1.056, 16:16:16.563
176, 5.17, 14.79, 5.04, 2.72, -0.016, 0.016, -1.056, 16:16:16.563
179, 2.24, 9.94, 5.08, 2.22, -0.016, 0.016, -1.056, 16:16:16.585
180, 9.74, 13.86, 0.89, 6.33, -0.016, 0.016, -1.056, 16:16:16.586
181, 8.19, 14.09, 3.51, 2.89, -0.016, 0.016, -1.056, 16:16:16.586
182, 3.72, 13.02, 6.55, 5.72, -0.016, 0.016, -1.056, 16:16:16.587
183, 13.77, 18.77, 8.96, 8.99, -0.016, 0.016, -1.056, 16:16:16.608
184, -1.93, 2.96, -5.49, 0.27, -0.016, 0.016, -1.056, 16:16:16.609
185, 8.02, 11.35, -0.06, 8.13, -0.032, 0.016, -1.056, 16:16:16.609
186, 4.98, 14.97, 7.79, 2.90, -0.032, 0.016, -1.056, 16:16:16.609
187, 4.50, 13.03, 3.86, 3.49, -0.032, 0.016, -1.056, 16:16:16.630
188, 1.90, 6.79, -0.31, -0.92, -0.032, 0.016, -1.056, 16:16:16.630
189, -0.09, 14.78, 4.73, 3.55, -0.032, 0.016, -1.056, 16:16:16.631
190, 6.22, 9.96, 5.10, 5.24, -0.032, 0.016, -1.056, 16:16:16.632
191, 4.44, 14.36, 5.02, 1.56, -0.032, 0.016, -1.056, 16:16:16.653
192, 10.75, 20.88, 9.06, 7.08, -0.032, 0.016, -1.056, 16:16:16.654
193, -5.52, 9.85, -2.54, -3.45, -0.032, 0.016, -1.056, 16:16:16.654
194, 6.64, 11.44, 2.75, 8.19, -0.032, 0.016, -1.056, 16:16:16.655
197, 2.99, 8.35, -0.74, 7.94, -0.032, 0.016, -1.056, 16:16:16.676
198, 6.16, 12.80, 3.12, 6.60, -0.032, 0.016, -1.056, 16:16:16.676
199, 1.57, 13.37, 3.50, 2.92, -0.032, 0.016, -1.056, 16:16:16.676
200, -0.55, 12.29, 2.46, 1.26, -0.032, 0.016, -1.056, 16:16:16.676
0, 19.22, 20.85, 17.61, 16.43, -0.032, 0.016, -1.056, 16:16:16.698
1, 2.19, 9.68, 9.58, 8.06, -0.032, 0.016, -1.056, 16:16:16.699
2, 13.22, 15.99, 12.22, 10.71, -0.032, 0.016, -1.056, 16:16:16.699
5, 14.09, 15.91, 9.33, 15.09, -0.016, 0.016, -1.040, 16:16:16.721
6, 14.52, 16.49, 12.12, 8.23, -0.016, 0.016, -1.040, 16:16:16.721
7, 9.58, 14.09, 6.88, 13.35, -0.016, 0.016, -1.040, 16:16:16.722
8, 13.84, 17.13, 11.10, 14.71, -0.016, 0.016, -1.040, 16:16:16.723
9, 22.72, 21.76, 19.66, 18.16, -0.016, 0.016, -1.040, 16:16:16.742
10, 8.60, 9.40, 2.28, 7.83, -0.016, 0.016, -1.040, 16:16:16.743
11, 12.81, 17.13, 7.32, 12.47, -0.016, 0.016, -1.040, 16:16:16.743
12, 16.43, 17.91, 12.11, 13.70, -0.016, 0.016, -1.040, 16:16:16.743
13, 18.51, 20.17, 10.55, 13.86, -0.016, 0.016, -1.040, 16:16:16.766
14, 11.18, 15.93, 3.12, 14.88, -0.016, 0.016, -1.040, 16:16:16.767
15, 13.58, 16.29, 11.63, 15.20, -0.016, 0.016, -1.040, 16:16:16.767
16, 14.22, 19.41, 8.52, 15.60, -0.016, 0.016, -1.040, 16:16:16.767
17, 17.81, 18.17, 13.48, 16.56, -0.016, 0.016, -1.040, 16:16:16.787
18, 20.47, 23.43, 17.63, 15.83, -0.016, 0.016, -1.040, 16:16:16.788
19, 6.32, 9.34, 2.38, 10.59, -0.016, 0.016, -1.040, 16:16:16.788
20, 13.41, 14.94, 8.79, 11.09, -0.016, 0.016, -1.040, 16:16:16.789
23, 9.42, 12.26, 2.52, 10.15, -0.016, 0.016, -1.040, 16:16:16.810
24, 10.96, 19.92, 4.89, 12.94, -0.016, 0.016, -1.040, 16:16:16.810
25, 18.53, 19.08, 8.29, 13.98, -0.016, 0.016, -1.056, 16:16:16.811
26, 15.51, 12.50, 3.23, 12.46, -0.016, 0.016, -1.056, 16:16:16.811
27, 18.79, 23.08, 10.61, 18.94, -0.016, 0.016, -1.056, 16:16:16.833
28, 8.56, 10.00, -2.24, 8.03, -0.016, 0.016, -1.056, 16:16:16.833
29, 16.72, 15.98, 8.38, 16.57, -0.016, 0.016, -1.056, 16:16:16.834
30, 10.34, 13.17, 0.56, 14.92, -0.016, 0.016, -1.056, 16:16:16.834
31, 10.60, 17.74, 1.99, 15.36, -0.016, 0.016, -1.056, 16:16:16.855
32, 11.28, 15.66, 4.32, 11.34, -0.016, 0.016, -1.056, 16:16:16.855
33, 20.96, 19.84, 7.37, 14.00, -0.016, 0.016, -1.056, 16:16:16.856
34, 10.37, 19.77, 1.60, 12.89, -0.016, 0.016, -1.056, 16:16:16.856
35, 12.88, 17.38, 1.40, 12.19, -0.016, 0.016, -1.056, 16:16:16.878
36, 19.40, 22.45, 11.82, 22.64, -0.016, 0.016, -1.056, 16:16:16.878
37, 10.20, 14.58, -0.84, 9.96, -0.016, 0.016, -1.056, 16:16:16.878
38, 12.96, 12.85, 4.10, 11.40, -0.016, 0.016, -1.056, 16:16:16.878
41, 11.01, 12.17, 9.66, 13.90, -0.016, 0.016, -1.056, 16:16:16.901
42, 10.39, 7.04, 9.62, 8.45, -0.016, 0.016, -1.056, 16:16:16.901
43, 9.79, 12.86, 8.82, 6.90, -0.016, 0.016, -1.056, 16:16:16.901
44, 8.00, 12.15, 12.09, 9.15, -0.016, 0.016, -1.056, 16:16:16.902
45, 19.54, 19.83, 17.05, 17.65, -0.016, 0.016, -1.040, 16:16:16.923
46, 4.49, 2.73, -0.55, 3.50, -0.016, 0.016, -1.040, 16:16:16.923
47, 6.05, 8.37, 2.49, 6.88, -0.016, 0.016, -1.040, 16:16:16.923
48, 13.40, 9.98, 11.05, 9.26, -0.016, 0.016, -1.040, 16:16:16.923
49, 13.85, 12.67, 10.96, 7.46, -0.016, 0.016, -1.040, 16:16:16.945
50, 5.25, 11.22, 7.70, 5.17, -0.016, 0.016, -1.040, 16:16:16.945
51, 9.58, 8.91, 9.06, 8.42, -0.016, 0.016, -1.040, 16:16:16.945
52, 15.07, 12.16, 8.23, 13.16, -0.016, 0.016, -1.040, 16:16:16.946
53, 11.71, 12.44, 10.52, 6.87, -0.016, 0.016, -1.040, 16:16:16.967
54, 14.86, 13.47, 16.21, 14.75, -0.016, 0.016, -1.040, 16:16:16.968
55, 4.00, 1.57, 0.91, 3.59, -0.016, 0.016, -1.040, 16:16:16.968
56, 9.32, 8.77, 9.53, 11.86, -0.016, 0.016, -1.040, 16:16:16.968
59, 7.14, 1.33, 4.44, 11.60, -0.016, 0.016, -1.040, 16:16:16.990
60, 13.70, 4.20, 7.03, 13.33, -0.016, 0.016, -1.040, 16:16:16.990
61, 15.37, 5.51, 8.45, 13.91, -0.016, 0.016, -1.040, 16:16:16.990
62, 15.97, 9.28, 9.55, 8.71, -0.016, 0.016, -1.040, 16:16:16.991
63, 17.44, 10.89, 12.34, 17.21, -0.016, 0.016, -1.040, 16:16:17.012
64, 4.60, -0.09, 1.57, 4.43, -0.016, 0.016, -1.040, 16:16:17.013
65, 14.28, 7.46, 4.11, 15.07, -0.048, 0.016, -1.056, 16:16:17.014
66, 11.61, 7.44, 4.36, 13.38, -0.048, 0.016, -1.056, 16:16:17.015
67, 14.94, 5.63, 1.90, 11.22, -0.048, 0.016, -1.056, 16:16:17.035
68, 12.58, 2.22, 5.24, 10.58, -0.048, 0.016, -1.056, 16:16:17.035
69, 14.42, 8.45, 12.53, 14.54, -0.048, 0.016, -1.056, 16:16:17.035
70, 11.94, 7.42, 7.03, 14.39, -0.048, 0.016, -1.056, 16:16:17.036
71, 9.72, 3.62, 4.56, 10.22, -0.048, 0.016, -1.056, 16:16:17.058
72, 16.84, 5.97, 13.66, 18.24, -0.048, 0.016, -1.056, 16:16:17.058
73, 7.94, -0.51, -0.27, 8.68, -0.048, 0.016, -1.056, 16:16:17.058
74, 13.23, 3.47, 6.42, 11.41, -0.048, 0.016, -1.056, 16:16:17.059
77, 15.14, 5.58, 6.02, 4.30, -0.048, 0.016, -1.056, 16:16:17.082
78, 14.94, 6.55, 8.18, 13.76, -0.048, 0.016, -1.056, 16:16:17.082
79, 15.03, 0.66, 7.12, 6.27, -0.048, 0.016, -1.056, 16:16:17.082
80, 19.44, 0.38, 10.78, 10.96, -0.048, 0.016, -1.056, 16:16:17.082
81, 24.76, 9.92, 10.23, 16.90, -0.048, 0.016, -1.056, 16:16:17.103
82, 8.99, -2.95, 0.59, 6.64, -0.048, 0.016, -1.056, 16:16:17.104
83, 15.14, 5.65, 7.09, 11.42, -0.048, 0.016, -1.056, 16:16:17.104
84, 19.00, 5.21, 8.38, 9.83, -0.048, 0.016, -1.056, 16:16:17.104
85, 18.30, 10.20, 10.22, 8.28, -0.016, 0.016, -1.056, 16:16:17.126
86, 13.42, 3.03, 7.99, 3.88, -0.016, 0.016, -1.056, 16:16:17.126
87, 16.66, 1.88, 8.87, 13.07, -0.016, 0.016, -1.056, 16:16:17.126
88, 16.90, 2.75, 12.19, 15.72, -0.016, 0.016, -1.056, 16:16:17.127
89, 18.67, 2.75, 9.51, 10.35, -0.016, 0.016, -1.056, 16:16:17.148
90, 17.84, 8.34, 14.90, 17.38, -0.016, 0.016, -1.056, 16:16:17.148
91, 7.54, -3.35, 1.13, 5.89, -0.016, 0.016, -1.056, 16:16:17.149
92, 15.49, 3.14, 5.54, 9.95, -0.016, 0.016, -1.056, 16:16:17.149
95, 10.34, -0.68, 4.59, 9.31, -0.016, 0.016, -1.056, 16:16:17.170
96, 14.17, 4.50, 10.46, 10.53, -0.016, 0.016, -1.056, 16:16:17.170
97, 13.73, 2.15, 6.41, 13.62, -0.016, 0.016, -1.056, 16:16:17.171
98, 13.42, 5.07, 7.90, 13.41, -0.016, 0.016, -1.056, 16:16:17.171
99, 19.88, 9.29, 11.10, 10.44, -0.016, 0.016, -1.056, 16:16:17.192
100, 9.21, -1.63, 0.84, 7.14, -0.016, 0.016, -1.056, 16:16:17.193
101, 17.07, 4.67, 5.58, 13.91, -0.016, 0.016, -1.056, 16:16:17.193
102, 12.53, 1.56, 3.89, 13.03, -0.016, 0.016, -1.056, 16:16:17.193
103, 12.84, -0.53, 6.17, 11.57, -0.016, 0.016, -1.056, 16:16:17.215
104, 14.71, 2.66, 7.23, 12.32, -0.016, 0.016, -1.056, 16:16:17.215
105, 14.50, 3.70, 12.20, 13.28, -0.048, 0.016, -1.040, 16:16:17.216
106, 18.44, 8.56, 8.50, 17.71, -0.048, 0.016, -1.040, 16:16:17.217
107, 10.67, 2.42, 8.01, 10.79, -0.048, 0.016, -1.040, 16:16:17.238
108, 18.02, 10.15, 14.66, 13.95, -0.048, 0.016, -1.040, 16:16:17.238
109, 8.15, -0.87, 0.84, 10.97, -0.048, 0.016, -1.040, 16:16:17.238
110, 14.88, 6.66, 9.92, 4.61, -0.048, 0.016, -1.040, 16:16:17.239
113, 18.15, 6.29, 8.18, 2.09, -0.048, 0.016, -1.040, 16:16:17.260
114, 19.25, 7.21, 10.39, -1.51, -0.048, 0.016, -1.040, 16:16:17.261
115, 16.45, 2.36, 4.66, -3.83, -0.048, 0.016, -1.040, 16:16:17.261
116, 14.56, 6.09, 11.80, -3.13, -0.048, 0.016, -1.040, 16:16:17.261
117, 25.41, 15.34, 16.05, 4.06, -0.048, 0.016, -1.040, 16:16:17.283
118, 12.09, 2.76, 5.62, -4.70, -0.048, 0.016, -1.040, 16:16:17.284
119, 17.58, 6.79, 8.07, -3.05, -0.048, 0.016, -1.040, 16:16:17.284
120, 14.62, 8.78, 9.98, -4.20, -0.048, 0.016, -1.040, 16:16:17.285
121, 17.17, 4.84, 8.84, 3.06, -0.048, 0.016, -1.040, 16:16:17.305
122, 16.92, 3.88, 6.08, -1.10, -0.048, 0.016, -1.040, 16:16:17.305
123, 15.37, 4.86, 10.21, -2.94, -0.048, 0.016, -1.040, 16:16:17.306
124, 16.70, 10.64, 5.65, 1.09, -0.048, 0.016, -1.040, 16:16:17.306
125, 15.92, 12.24, 6.06, -0.71, -0.032, 0.016, -1.040, 16:16:17.328
126, 15.19, 15.97, 16.12, 5.59, -0.032, 0.016, -1.040, 16:16:17.328
127, 4.83, -0.94, 1.34, -7.66, -0.032, 0.016, -1.040, 16:16:17.328
128, 14.18, 7.61, 8.82, -0.31, -0.032, 0.016, -1.040, 16:16:17.328
131, 9.45, 10.39, 12.50, -5.78, -0.032, 0.016, -1.040, 16:16:17.350
132, 15.77, 11.84, 16.63, 2.16, -0.032, 0.016, -1.040, 16:16:17.350
133, 15.10, 13.22, 10.64, -2.63, -0.032, 0.016, -1.040, 16:16:17.350
134, 18.03, 8.82, 10.19, -2.89, -0.032, 0.016, -1.040, 16:16:17.351
135, 23.95, 18.34, 13.25, 2.92, -0.032, 0.016, -1.040, 16:16:17.373
136, 6.43, 4.10, 8.57, -8.97, -0.032, 0.016, -1.040, 16:16:17.373
137, 15.50, 9.99, 7.02, 0.20, -0.032, 0.016, -1.040, 16:16:17.374
138, 16.78, 10.72, 11.54, -5.46, -0.032, 0.016, -1.040, 16:16:17.374
139, 14.42, 7.17, 8.47, -3.89, -0.032, 0.016, -1.040, 16:16:17.395
140, 14.19, 9.45, 11.22, -5.27, -0.032, 0.016, -1.040, 16:16:17.395
141, 19.20, 14.93, 10.47, 2.43, -0.032, 0.016, -1.040, 16:16:17.396
142, 16.64, 7.22, 9.94, -5.40, -0.032, 0.016, -1.040, 16:16:17.396
143, 13.82, 6.31, 10.64, 0.30, -0.032, 0.016, -1.040, 16:16:17.420
144, 21.58, 16.60, 14.00, 3.92, -0.032, 0.016, -1.040, 16:16:17.420
145, 10.19, 5.80, 3.01, -5.20, -0.016, 0.016, -1.072, 16:16:17.421
146, 15.47, 7.91, 11.43, 1.43, -0.016, 0.016, -1.072, 16:16:17.421
149, 11.68, 10.72, 11.14, 4.08, -0.016, 0.016, -1.072, 16:16:17.440
150, 13.84, 9.54, 14.64, 1.95, -0.016, 0.016, -1.072, 16:16:17.440
151, 14.49, 5.80, 10.75, -1.49, -0.016, 0.016, -1.072, 16:16:17.441
152, 14.10, 6.64, 14.03, 1.00, -0.016, 0.016, -1.072, 16:16:17.441
153, 18.03, 18.32, 24.51, 5.67, -0.016, 0.016, -1.072, 16:16:17.463
154, 9.92, 2.41, 8.85, -2.57, -0.016, 0.016, -1.072, 16:16:17.463
155, 11.69, 7.84, 11.22, -1.33, -0.016, 0.016, -1.072, 16:16:17.464
156, 14.86, 8.35, 11.40, 1.67, -0.016, 0.016, -1.072, 16:16:17.465
157, 15.36, 8.12, 11.91, 0.07, -0.016, 0.016, -1.072, 16:16:17.485
158, 13.55, 3.87, 8.64, -4.44, -0.016, 0.016, -1.072, 16:16:17.486
159, 13.84, 8.22, 9.00, 0.50, -0.016, 0.016, -1.072, 16:16:17.487
160, 13.86, 12.23, 13.06, -0.36, -0.016, 0.016, -1.072, 16:16:17.487
161, 17.55, 10.20, 15.80, 6.15, -0.016, 0.016, -1.072, 16:16:17.508
162, 19.52, 13.33, 17.93, 6.99, -0.016, 0.016, -1.072, 16:16:17.508
163, 5.96, -2.40, 7.33, -2.91, -0.016, 0.016, -1.072, 16:16:17.509
164, 10.39, 6.11, 13.54, 1.56, -0.016, 0.016, -1.072, 16:16:17.509
167, 7.31, 0.45, 5.92, -1.71, -0.016, 0.016, -1.072, 16:16:17.530
168, 9.49, 1.24, 13.67, 1.13, -0.016, 0.016, -1.072, 16:16:17.530
169, 11.09, 1.08, 12.94, -0.33, -0.016, 0.016, -1.072, 16:16:17.533
170, 4.39, -1.46, 8.00, 1.12, -0.016, 0.016, -1.072, 16:16:17.533
171, 17.84, 11.00, 16.78, 5.23, -0.016, 0.016, -1.072, 16:16:17.552
172, 4.21, -1.43, 4.14, -3.55, -0.016, 0.016, -1.072, 16:16:17.553
173, 6.59, 3.48, 7.56, 1.56, -0.016, 0.016, -1.072, 16:16:17.553
174, 10.87, -2.70, 10.14, -2.88, -0.016, 0.016, -1.072, 16:16:17.553
175, 6.62, -0.51, 9.92, 1.61, -0.016, 0.016, -1.072, 16:16:17.575
176, 4.30, 0.36, 6.53, -2.71, -0.016, 0.016, -1.072, 16:16:17.575
177, 9.31, 4.07, 14.31, 0.32, -0.016, 0.016, -1.072, 16:16:17.575
178, 11.14, 2.85, 9.84, 2.06, -0.016, 0.016, -1.072, 16:16:17.576
179, 10.92, -0.57, 8.32, 1.67, -0.016, 0.016, -1.072, 16:16:17.597
180, 13.24, 7.17, 15.79, 4.04, -0.016, 0.016, -1.072, 16:16:17.598
181, 3.01, 0.89, 6.55, -2.52, -0.016, 0.016, -1.072, 16:16:17.598
182, 8.98, 0.80, 6.31, 1.11, -0.016, 0.016, -1.072, 16:16:17.598
185, 9.53, -0.62, 1.76, 3.45, -0.032, 0.016, -1.056, 16:16:17.620
186, 12.65, -2.46, 5.71, 2.46, -0.032, 0.016, -1.056, 16:16:17.621
187, 7.55, -3.04, 7.74, 0.04, -0.032, 0.016, -1.056, 16:16:17.622
188, 12.36, -1.30, 6.86, 0.36, -0.032, 0.016, -1.056, 16:16:17.623
189, 19.06, 6.17, 9.96, 7.28, -0.032, 0.016, -1.056, 16:16:17.642
190, 2.31, -11.20, 1.19, -4.10, -0.032, 0.016, -1.056, 16:16:17.643
191, 4.63, -2.03, 2.13, 2.44, -0.032, 0.016, -1.056, 16:16:17.643
192, 6.50, 0.84, 5.97, -0.29, -0.032, 0.016, -1.056, 16:16:17.643
193, 9.61, -1.57, 5.41, 2.97, -0.032, 0.016, -1.056, 16:16:17.666
194, 9.92, -1.82, 3.93, 0.78, -0.032, 0.016, -1.056, 16:16:17.666
195, 13.63, 1.49, 5.54, 2.95, -0.032, 0.016, -1.056, 16:16:17.666
196, 11.55, -2.58, 5.34, 3.54, -0.032, 0.016, -1.056, 16:16:17.667
197, 11.49, 2.98, 3.79, 4.64, -0.032, 0.016, -1.056, 16:16:17.688
198, 17.85, 6.37, 8.05, 7.55, -0.032, 0.016, -1.056, 16:16:17.688
199, 4.20, -5.05, -2.96, -3.01, -0.032, 0.016, -1.056, 16:16:17.688
200, 7.96, -0.02, 4.27, 2.41, -0.032, 0.016, -1.056, 16:16:17.688
1, 2.93, -1.62, 4.16, 1.57, -0.032, 0.016, -1.056, 16:16:17.711
2, -0.09, -8.13, 0.76, -4.52, -0.032, 0.016, -1.056, 16:16:17.711
3, 6.70, -0.94, 6.92, -5.21, -0.032, 0.016, -1.056, 16:16:17.711
4, 6.49, -1.28, 6.83, 1.55, -0.032, 0.016, -1.056, 16:16:17.712
5, 3.07, -9.31, 5.22, 3.69, -0.048, 0.016, -1.056, 16:16:17.733
6, 10.69, 1.34, 3.52, 6.81, -0.048, 0.016, -1.056, 16:16:17.733
7, -4.24, -9.16, -2.99, -2.81, -0.048, 0.016, -1.056, 16:16:17.734
8, 4.45, -3.78, 5.45, 2.11, -0.048, 0.016, -1.056, 16:16:17.734
11, 4.67, -4.70, 3.76, -1.53, -0.048, 0.016, -1.056, 16:16:17.755
12, 10.35, -3.95, 9.77, 5.22, -0.048, 0.016, -1.056, 16:16:17.756
13, 5.77, -1.02, 4.89, 2.59, -0.048, 0.016, -1.056, 16:16:17.756
14, 6.05, -8.74, 1.66, -1.87, -0.048, 0.016, -1.056, 16:16:17.757
15, 14.22, 1.90, 10.16, 8.60, -0.048, 0.016, -1.056, 16:16:17.778
16, 0.99, -7.05, -0.23, -3.25, -0.048, 0.016, -1.056, 16:16:17.778
17, 6.54, -1.12, 1.31, 2.07, -0.048, 0.016, -1.056, 16:16:17.801
18, 5.17, -6.06, 2.77, 1.69, -0.048, 0.016, -1.056, 16:16:17.801
19, 8.53, -3.68, 2.48, -0.17, -0.048, 0.016, -1.056, 16:16:17.801
20, 7.31, -5.02, 4.70, 5.88, -0.048, 0.016, -1.056, 16:16:17.802
21, 1.03, -5.25, 6.14, 4.28, -0.048, 0.016, -1.056, 16:16:17.822
22, 1.71, -8.87, 1.02, 1.69, -0.048, 0.016, -1.056, 16:16:17.823
23, 5.56, -8.30, 3.26, 2.61, -0.048, 0.016, -1.056, 16:16:17.823
24, 14.31, 5.37, 10.76, 12.78, -0.048, 0.016, -1.056, 16:16:17.823
25, -0.62, -8.30, -5.28, -3.40, -0.032, 0.016, -1.056, 16:16:17.845
26, 2.06, -10.20, 3.74, 2.61, -0.032, 0.016, -1.056, 16:16:17.845
27, 7.80, -4.75, -0.87, -0.15, -0.032, 0.016, -1.056, 16:16:17.846
28, 7.71, -0.55, 2.63, 4.51, -0.032, 0.016, -1.056, 16:16:17.846
33, 14.04, 1.03, 5.88, 8.64, -0.032, 0.016, -1.056, 16:16:17.868
34, -2.22, -11.72, -6.99, 2.88, -0.032, 0.016, -1.056, 16:16:17.868
35, 6.65, -2.62, -2.68, 3.46, -0.032, 0.016, -1.056, 16:16:17.868
36, 11.37, -5.58, -1.59, 8.25, -0.032, 0.016, -1.056, 16:16:17.869
37, 8.81, -2.93, 0.85, 6.35, -0.032, 0.016, -1.056, 16:16:17.891
38, 5.87, -5.25, 0.44, -1.41, -0.032, 0.016, -1.056, 16:16:17.891
39, 12.89, -3.78, 5.31, 7.77, -0.032, 0.016, -1.056, 16:16:17.892
40, 6.03, -4.10, 4.91, 6.90, -0.032, 0.016, -1.056, 16:16:17.892
41, 4.55, -5.15, 2.94, 7.76, -0.032, 0.016, -1.056, 16:16:17.912
42, 12.52, -0.52, 5.21, 10.42, -0.032, 0.016, -1.056, 16:16:17.913
43, 4.84, -10.75, -0.29, 0.66, -0.032, 0.016, -1.056, 16:16:17.913
44, 7.65, -2.48, -0.56, 10.34, -0.032, 0.016, -1.056, 16:16:17.913
47, 4.37, 5.97, -3.35, 9.17, -0.032, 0.016, -1.056, 16:16:17.935
48, 10.76, 3.68, -5.64, 16.28, -0.032, 0.016, -1.056, 16:16:17.935
49, 6.29, -2.21, -3.83, 11.89, -0.032, 0.016, -1.056, 16:16:17.936
50, 6.49, -1.85, -7.40, 15.22, -0.032, 0.016, -1.056, 16:16:17.936
51, 11.32, 6.64, 4.00, 23.40, -0.032, 0.016, -1.056, 16:16:17.957
52, 6.04, -7.82, -7.08, 9.13, -0.032, 0.016, -1.056, 16:16:17.958
53, 10.83, -2.86, -4.39, 14.05, -0.032, 0.016, -1.056, 16:16:17.958
54, 4.19, -2.16, -4.85, 14.15, -0.032, 0.016, -1.056, 16:16:17.958
55, 9.87, 2.11, -4.32, 15.18, -0.032, 0.016, -1.056, 16:16:17.980
56, 10.36, -1.23, -0.53, 10.55, -0.032, 0.016, -1.056, 16:16:17.980
57, 4.67, -0.29, 0.34, 12.05, -0.032, 0.016, -1.056, 16:16:17.981
58, 6.42, -4.54, -3.44, 14.80, -0.032, 0.016, -1.056, 16:16:17.981
59, 2.86, 3.64, -8.84, 10.81, -0.032, 0.016, -1.056, 16:16:18.004
60, 18.97, 7.25, 3.44, 19.67, -0.032, 0.016, -1.056, 16:16:18.007
61, 4.69, -5.47, -9.78, 9.00, -0.032, 0.016, -1.056, 16:16:18.007
62, 9.88, -2.09, -3.02, 16.90, -0.032, 0.016, -1.056, 16:16:18.007
65, 7.12, -4.93, -5.40, 19.10, -0.032, 0.016, -1.056, 16:16:18.026
66, 10.22, -5.62, -3.93, 17.10, -0.032, 0.016, -1.056, 16:16:18.026
67, 7.91, -6.46, -4.19, 15.82, -0.032, 0.016, -1.056, 16:16:18.026
68, 12.75, -5.08, 0.43, 17.90, -0.032, 0.016, -1.056, 16:16:18.026
69, 13.54, 1.41, 4.49, 24.47, -0.032, 0.016, -1.056, 16:16:18.048
70, 1.55, -11.99, -9.82, 6.74, -0.032, 0.016, -1.056, 16:16:18.048
71, 9.86, -3.51, -0.87, 13.18, -0.032, 0.016, -1.056, 16:16:18.049
72, 11.55, -2.92, -0.02, 13.44, -0.032, 0.016, -1.056, 16:16:18.049
73, 8.37, -4.10, -3.96, 17.72, -0.032, 0.016, -1.056, 16:16:18.070
74, 8.32, -7.02, -7.81, 13.49, -0.032, 0.016, -1.056, 16:16:18.071
75, 8.82, -2.57, 0.04, 15.55, -0.032, 0.016, -1.056, 16:16:18.071
76, 10.96, -3.67, 0.25, 19.55, -0.032, 0.016, -1.056, 16:16:18.071
77, 6.86, -8.35, -4.09, 18.82, -0.032, 0.016, -1.056, 16:16:18.092
78, 12.45, -1.92, 0.29, 16.42, -0.032, 0.016, -1.056, 16:16:18.093
79, 5.48, -8.35, -9.36, 6.45, -0.032, 0.016, -1.056, 16:16:18.093
80, 12.10, -0.91, -1.05, 18.77, -0.032, 0.016, -1.056, 16:16:18.093
83, 13.90, -1.33, -1.13, 26.12, -0.032, 0.016, -1.056, 16:16:18.116
84, 17.84, 6.40, 6.48, 23.57, -0.032, 0.016, -1.056, 16:16:18.117
85, 11.64, 4.44, 2.06, 24.45, -0.032, 0.032, -1.056, 16:16:18.117
86, 11.46, 2.71, 0.62, 23.02, -0.032, 0.032, -1.056, 16:16:18.117
87, 16.55, 7.30, 6.16, 24.60, -0.032, 0.032, -1.056, 16:16:18.138
88, 7.90, -3.97, -2.64, 17.34, -0.032, 0.032, -1.056, 16:16:18.138
89, 8.89, -0.21, 3.32, 21.40, -0.032, 0.032, -1.056, 16:16:18.138
90, 11.52, 0.01, 0.98, 15.87, -0.032, 0.032, -1.056, 16:16:18.139
91, 14.84, -0.54, 1.38, 21.11, -0.032, 0.032, -1.056, 16:16:18.160
92, 16.80, 1.75, 0.74, 19.84, -0.032, 0.032, -1.056, 16:16:18.161
93, 11.80, 5.41, 2.52, 14.85, -0.032, 0.032, -1.056, 16:16:18.161
94, 9.50, 1.62, -0.63, 18.55, -0.032, 0.032, -1.056, 16:16:18.161
95, 13.88, 2.89, 4.51, 23.46, -0.032, 0.032, -1.056, 16:16:18.182
96, 21.97, 11.61, 11.54, 24.93, -0.032, 0.032, -1.056, 16:16:18.183
97, 8.35, -0.37, -4.98, 15.14, -0.032, 0.032, -1.056, 16:16:18.183
98, 8.36, 5.74, -3.58, 14.25, -0.032, 0.032, -1.056, 16:16:18.183
101, 3.02, -1.56, -7.97, 7.18, -0.032, 0.032, -1.056, 16:16:18.205
102, 0.88, 2.90, -5.08, 12.63, -0.032, 0.032, -1.056, 16:16:18.205
103, 1.61, 5.71, -10.10, 11.65, -0.032, 0.032, -1.056, 16:16:18.206
104, 8.94, 7.38, -2.24, 11.03, -0.032, 0.032, -1.056, 16:16:18.206
105, 11.76, 9.41, -0.92, 17.95, -0.048, 0.000, -1.056, 16:16:18.227
106, -3.88, -2.00, -15.55, 9.26, -0.048, 0.000, -1.056, 16:16:18.228
107, 3.53, 3.00, -9.98, 9.03, -0.048, 0.000, -1.056, 16:16:18.228
108, 2.84, 3.53, -4.95, 8.00, -0.048, 0.000, -1.056, 16:16:18.228
109, 4.20, 1.47, -5.37, 7.94, -0.048, 0.000, -1.056, 16:16:18.250
110, -3.42, 2.53, -14.02, 1.35, -0.048, 0.000, -1.056, 16:16:18.251
111, 4.89, 1.68, -1.04, 9.45, -0.048, 0.000, -1.056, 16:16:18.251
112, 5.77, 7.18, -6.80, 8.33, -0.048, 0.000, -1.056, 16:16:18.251
113, 1.03, 2.69, -9.02, 8.87, -0.048, 0.000, -1.056, 16:16:18.273
114, 7.64, 1.45, -2.50, 10.62, -0.048, 0.000, -1.056, 16:16:18.273
115, 1.29, -2.63, -12.88, 6.56, -0.048, 0.000, -1.056, 16:16:18.273
116, 4.53, 5.05, -6.71, 14.76, -0.048, 0.000, -1.056, 16:16:18.274
119, 3.53, 0.64, -9.33, 20.53, -0.048, 0.000, -1.056, 16:16:18.295
120, 10.86, 8.99, -4.66, 18.49, -0.048, 0.000, -1.056, 16:16:18.296
121, -0.37, 6.80, -9.39, 14.95, -0.048, 0.000, -1.056, 16:16:18.296
122, 5.25, 8.19, -4.53, 14.63, -0.048, 0.000, -1.056, 16:16:18.296
123, 12.53, 14.62, -5.59, 25.53, -0.048, 0.000, -1.056, 16:16:18.318
124, 2.38, 1.35, -9.10, 14.80, -0.048, 0.000, -1.056, 16:16:18.318
125, 4.87, 3.24, -5.78, 14.44, -0.016, 0.016, -1.072, 16:16:18.318
126, 2.04, 4.27, -10.96, 13.19, -0.016, 0.016, -1.072, 16:16:18.318
127, 8.10, 8.61, -6.51, 18.73, -0.016, 0.016, -1.072, 16:16:18.340
128, 5.89, 2.84, -8.78, 18.06, -0.016, 0.016, -1.072, 16:16:18.340
129, 6.28, 1.09, -4.92, 19.43, -0.016, 0.016, -1.072, 16:16:18.341
130, 0.17, 0.48, -12.38, 15.46, -0.016, 0.016, -1.072, 16:16:18.341
131, 4.44, 5.32, -9.93, 16.76, -0.016, 0.016, -1.072, 16:16:18.363
132, 16.74, 16.66, 2.19, 23.19, -0.016, 0.016, -1.072, 16:16:18.363
133, -2.08, -2.31, -12.05, 13.48, -0.016, 0.016, -1.072, 16:16:18.364
134, 0.36, 3.22, -9.73, 12.58, -0.016, 0.016, -1.072, 16:16:18.365
137, -9.83, -2.74, -11.90, 5.98, -0.016, 0.016, -1.072, 16:16:18.385
138, -4.09, -0.67, -10.57, 7.29, -0.016, 0.016, -1.072, 16:16:18.386
139, -2.93, 1.96, -8.79, 13.46, -0.016, 0.016, -1.072, 16:16:18.386
140, 0.93, 1.22, -4.07, 12.38, -0.016, 0.016, -1.072, 16:16:18.386
141, 1.49, 4.70, -5.10, 10.84, -0.016, 0.016, -1.072, 16:16:18.408
142, -10.68, -5.85, -18.59, 0.76, -0.016, 0.016, -1.072, 16:16:18.408
143, -2.05, 0.36, -8.81, 8.38, -0.016, 0.016, -1.072, 16:16:18.408
144, 1.98, -0.34, -8.15, 12.74, -0.016, 0.016, -1.072, 16:16:18.409
145, -4.82, -0.67, -7.95, 9.72, -0.032, 0.016, -1.056, 16:16:18.430
146, -6.47, -1.63, -12.44, 3.78, -0.032, 0.016, -1.056, 16:16:18.430
147, -2.08, 1.52, -2.40, 11.62, -0.032, 0.016, -1.056, 16:16:18.431
148, 2.66, 2.61, -6.56, 11.82, -0.032, 0.016, -1.056, 16:16:18.431
149, -4.29, 1.23, -6.74, 5.14, -0.032, 0.016, -1.056, 16:16:18.454
150, -0.59, 1.28, -10.81, 11.71, -0.032, 0.016, -1.056, 16:16:18.454
151, -7.27, -3.95, -11.90, 6.13, -0.032, 0.016, -1.056, 16:16:18.455
152, 2.07, 1.31, -7.50, 11.43, -0.032, 0.016, -1.056, 16:16:18.456
155, 3.40, 2.93, -8.71, 13.94, -0.032, 0.016, -1.056, 16:16:18.475
156, 8.46, 7.27, -4.06, 12.69, -0.032, 0.016, -1.056, 16:16:18.476
157, 0.35, 0.87, -7.88, 10.55, -0.032, 0.016, -1.056, 16:16:18.476
158, 2.05, -0.46, -8.99, 6.51, -0.032, 0.016, -1.056, 16:16:18.476
159, 13.16, 8.33, 1.32, 14.91, -0.032, 0.016, -1.056, 16:16:18.498
160, 0.66, -1.20, -9.70, 7.22, -0.032, 0.016, -1.056, 16:16:18.499
161, -1.06, -0.66, -10.21, 11.11, -0.032, 0.016, -1.056, 16:16:18.500
162, -2.63, 0.48, -9.17, 3.44, -0.032, 0.016, -1.056, 16:16:18.500
163, 4.66, 4.85, -1.39, 9.83, -0.032, 0.016, -1.056, 16:16:18.520
164, 3.55, 3.31, -8.07, 11.95, -0.032, 0.016, -1.056, 16:16:18.520
165, -0.36, -1.52, -7.01, 9.35, -0.016, 0.016, -1.056, 16:16:18.521
166, -1.96, -4.12, -9.68, 6.90, -0.016, 0.016, -1.056, 16:16:18.521
167, 7.49, 4.00, -0.54, 17.75, -0.016, 0.016, -1.056, 16:16:18.543
168, 14.90, 13.43, 1.11, 17.65, -0.016, 0.016, -1.056, 16:16:18.543
169, -3.17, -4.93, -13.24, 6.44, -0.016, 0.016, -1.056, 16:16:18.544
170, 1.64, -1.88, -10.95, 9.50, -0.016, 0.016, -1.056, 16:16:18.544
173, -7.45, -5.71, -16.80, 8.70, -0.016, 0.016, -1.056, 16:16:18.566
174, -8.39, -3.77, -18.28, 6.34, -0.016, 0.016, -1.056, 16:16:18.566
175, -1.50, -6.37, -18.26, 6.98, -0.016, 0.016, -1.056, 16:16:18.567
176, 2.00, -0.42, -13.14, 10.80, -0.016, 0.016, -1.056, 16:16:18.567
177, 4.02, 0.05, -8.25, 15.16, -0.016, 0.016, -1.056, 16:16:18.589
178, -12.64, -14.38, -22.34, 3.60, -0.016, 0.016, -1.056, 16:16:18.589
179, -3.27, -3.01, -16.37, 3.77, -0.016, 0.016, -1.056, 16:16:18.590
180, 2.24, -0.46, -8.93, 7.41, -0.016, 0.016, -1.056, 16:16:18.590
181, -4.61, -4.48, -14.65, 13.90, -0.016, 0.016, -1.056, 16:16:18.610
182, -10.18, -5.67, -21.07, 5.89, -0.016, 0.016, -1.056, 16:16:18.610
183, -2.45, -2.47, -18.24, 10.12, -0.016, 0.016, -1.056, 16:16:18.611
184, -0.03, -3.25, -13.14, 8.82, -0.016, 0.016, -1.056, 16:16:18.611
185, -4.14, -2.04, -12.53, 6.21, -0.032, 0.016, -1.056, 16:16:18.635
186, 1.85, -0.12, -16.07, 10.02, -0.032, 0.016, -1.056, 16:16:18.635
187, -7.60, -7.71, -18.59, 3.75, -0.032, 0.016, -1.056, 16:16:18.636
188, -2.25, -0.54, -13.49, 11.18, -0.032, 0.016, -1.056, 16:16:18.636
191, 2.01, 2.17, -11.16, 11.50, -0.032, 0.016, -1.056, 16:16:18.656
192, 6.93, 3.72, -5.43, 16.30, -0.032, 0.016, -1.056, 16:16:18.657
193, -0.03, 2.19, -12.49, 4.38, -0.032, 0.016, -1.056, 16:16:18.657
194, -0.80, 1.66, -14.86, 8.19, -0.032, 0.016, -1.056, 16:16:18.657
195, 9.95, 8.64, -4.88, 15.72, -0.032, 0.016, -1.056, 16:16:18.678
196, 1.26, -2.75, -13.28, 10.66, -0.032, 0.016, -1.056, 16:16:18.678
197, 4.99, 0.73, -13.95, 13.00, -0.032, 0.016, -1.056, 16:16:18.678
198, -0.37, -5.64, -14.52, 9.94, -0.032, 0.016, -1.056, 16:16:18.679
199, 0.91, 4.09, -6.12, 12.46, -0.032, 0.016, -1.056, 16:16:18.700
200, 4.40, 0.11, -11.49, 12.29, -0.032, 0.016, -1.056, 16:16:18.700
0, 10.76, 15.85, 11.97, 12.16, -0.032, 0.016, -1.056, 16:16:18.701
3, 22.77, 24.35, 18.25, 24.12, -0.032, 0.016, -1.056, 16:16:18.723
4, 0.22, 12.77, 6.99, 4.51, -0.032, 0.016, -1.056, 16:16:18.723
5, 6.28, 11.35, 9.71, 6.61, -0.032, 0.016, -1.056, 16:16:18.723
6, 13.20, 15.20, 15.56, 13.26, -0.032, 0.016, -1.056, 16:16:18.724
7, 12.76, 18.63, 16.31, 15.04, -0.032, 0.016, -1.056, 16:16:18.745
8, 5.42, 15.06, 15.27, 8.13, -0.032, 0.016, -1.056, 16:16:18.746
9, 7.29, 12.68, 10.65, 10.12, -0.032, 0.016, -1.056, 16:16:18.746
10, 9.56, 12.77, 8.25, 10.62, -0.032, 0.016, -1.056, 16:16:18.746
11, 14.76, 15.91, 18.49, 18.40, -0.032, 0.016, -1.056, 16:16:18.767
12, 13.47, 19.94, 18.05, 15.55, -0.032, 0.016, -1.056, 16:16:18.768
13, -1.70, 8.78, 5.28, 5.15, -0.032, 0.016, -1.056, 16:16:18.768
14, 8.04, 17.65, 14.30, 10.22, -0.032, 0.016, -1.056, 16:16:18.768
17, 2.52, 12.11, 8.28, 2.37, -0.032, 0.016, -1.056, 16:16:18.790
18, 12.36, 18.76, 9.58, 6.72, -0.032, 0.016, -1.056, 16:16:18.790
19, 12.16, 21.06, 11.67, 8.52, -0.032, 0.016, -1.056, 16:16:18.790
20, 4.39, 19.32, 8.40, 11.22, -0.032, 0.016, -1.056, 16:16:18.791
21, 9.07, 27.10, 12.13, 12.63, -0.032, 0.016, -1.056, 16:16:18.812
22, -1.89, 13.85, 6.02, 4.23, -0.032, 0.016, -1.056, 16:16:18.813
23, 14.36, 18.27, 11.75, 7.98, -0.032, 0.016, -1.056, 16:16:18.813
24, 10.64, 23.50, 15.93, 8.81, -0.032, 0.016, -1.056, 16:16:18.813
25, 7.70, 17.35, 6.71, 8.38, -0.032, 0.000, -1.056, 16:16:18.835
26, 13.47, 19.11, 10.81, 9.73, -0.032, 0.000, -1.056, 16:16:18.836
27, 12.40, 19.89, 12.73, 14.59, -0.032, 0.000, -1.056, 16:16:18.836
28, 11.70, 20.40, 8.33, 10.39, -0.032, 0.000, -1.056, 16:16:18.836
29, 4.14, 18.48, 12.18, 1.99, -0.032, 0.000, -1.056, 16:16:18.857
30, 14.82, 25.07, 17.28, 14.58, -0.032, 0.000, -1.056, 16:16:18.858
31, 8.49, 15.99, 5.83, 4.99, -0.032, 0.000, -1.056, 16:16:18.858
32, 6.03, 16.78, 9.46, 6.30, -0.032, 0.000, -1.056, 16:16:18.858
35, 7.58, 17.72, 12.23, 3.93, -0.032, 0.000, -1.056, 16:16:18.881
36, 5.23, 13.69, 11.39, 4.65, -0.032, 0.000, -1.056, 16:16:18.881
37, 4.08, 15.49, 4.72, 2.59, -0.032, 0.000, -1.056, 16:16:18.882
38, 6.79, 15.37, 5.09, 4.79, -0.032, 0.000, -1.056, 16:16:18.882
39, 13.51, 23.91, 20.76, 9.95, -0.032, 0.000, -1.056, 16:16:18.902
40, 2.63, 9.59, 5.96, -2.15, -0.032, 0.000, -1.056, 16:16:18.903
41, 5.37, 13.43, 7.20, -0.67, -0.032, 0.000, -1.056, 16:16:18.903
42, 9.94, 18.84, 11.39, 4.62, -0.032, 0.000, -1.056, 16:16:18.903
43, 11.52, 20.76, 10.63, 10.27, -0.032, 0.000, -1.056, 16:16:18.925
44, 7.16, 15.70, 5.96, 2.38, -0.032, 0.000, -1.056, 16:16:18.925
45, 2.30, 11.36, 4.77, 4.18, -0.048, 0.016, -1.040, 16:16:18.926
46, 4.46, 18.51, 6.89, 6.33, -0.048, 0.016, -1.040, 16:16:18.926
47, 10.11, 20.23, 9.46, 9.17, -0.048, 0.016, -1.040, 16:16:18.948
48, 13.20, 27.30, 13.01, 11.78, -0.048, 0.016, -1.040, 16:16:18.949
49, -5.58, 10.06, 2.01, -2.63, -0.048, 0.016, -1.040, 16:16:18.949
50, 8.48, 18.46, 6.84, 4.48, -0.048, 0.016, -1.040, 16:16:18.949
53, 3.66, 12.26, 2.96, 0.16, -0.048, 0.016, -1.040, 16:16:18.970
54, 12.67, 18.75, 11.94, 1.03, -0.048, 0.016, -1.040, 16:16:18.970
55, 10.59, 22.10, 15.46, 0.42, -0.048, 0.016, -1.040, 16:16:18.970
56, 12.07, 22.87, 10.95, 2.63, -0.048, 0.016, -1.040, 16:16:18.971
57, 8.92, 25.53, 13.16, 4.56, -0.048, 0.016, -1.040, 16:16:18.992
58, 5.95, 17.48, 9.86, -3.52, -0.048, 0.016, -1.040, 16:16:18.993
59, 11.57, 19.66, 16.02, 5.50, -0.048, 0.016, -1.040, 16:16:18.993
60, 8.51, 19.68, 12.33, 4.67, -0.048, 0.016, -1.040, 16:16:18.993
61, 18.76, 26.29, 16.42, 5.08, -0.048, 0.016, -1.040, 16:16:19.015
62, 5.80, 15.75, 10.73, -0.72, -0.048, 0.016, -1.040, 16:16:19.015
63, 3.23, 13.38, 8.10, -3.12, -0.048, 0.016, -1.040, 16:16:19.016
64, -36.59, 22.26, 9.35, 3.70, -0.048, 0.016, -1.040, 16:16:19.016
65, -198.65, 23.94, 14.51, 6.00, -0.032, 0.000, -1.056, 16:16:19.037
66, -425.54, 24.62, 14.80, 8.09, -0.032, 0.000, -1.056, 16:16:19.038
67, -464.62, 8.97, -0.14, -8.57, -0.032, 0.000, -1.056, 16:16:19.038
68, -391.37, 19.62, 12.12, 1.20, -0.032, 0.000, -1.056, 16:16:19.038
71, -364.77, 15.99, 7.41, 0.43, -0.032, 0.000, -1.056, 16:16:19.060
72, -12.25, 24.36, 21.71, 5.38, -0.032, 0.000, -1.056, 16:16:19.060
73, 367.05, 26.99, 20.12, 10.21, -0.032, 0.000, -1.056, 16:16:19.082
74, 461.04, 20.58, 13.92, 2.93, -0.032, 0.000, -1.056, 16:16:19.083
75, 507.48, 25.55, 12.63, 5.40, -0.032, 0.000, -1.056, 16:16:19.083
76, 481.70, 16.60, 12.52, 0.19, -0.032, 0.000, -1.056, 16:16:19.083
77, 460.68, 27.18, 23.27, 10.58, -0.032, 0.000, -1.056, 16:16:19.105
78, 433.37, 23.70, 16.48, 5.39, -0.032, 0.000, -1.056, 16:16:19.105
79, 410.42, 16.52, 12.67, -0.02, -0.032, 0.000, -1.056, 16:16:19.106
80, 393.18, 22.81, 19.10, 5.60, -0.032, 0.000, -1.056, 16:16:19.106
81, 384.09, 27.94, 24.77, 11.94, -0.032, 0.000, -1.056, 16:16:19.127
82, 359.92, 19.22, 19.59, 2.92, -0.032, 0.000, -1.056, 16:16:19.127
83, 347.54, 20.38, 11.41, 0.55, -0.032, 0.000, -1.056, 16:16:19.128
84, 336.37, 18.11, 15.02, -2.22, -0.032, 0.000, -1.056, 16:16:19.128
89, 328.49, 22.71, 17.40, -0.65, -0.032, 0.000, -1.056, 16:16:19.150
90, 314.80, 18.72, 20.03, -0.16, -0.032, 0.000, -1.056, 16:16:19.151
91, 307.78, 14.71, 14.22, -6.99, -0.032, 0.000, -1.056, 16:16:19.151
92, 309.32, 15.88, 15.39, -4.19, -0.032, 0.000, -1.056, 16:16:19.151
93, 313.43, 25.79, 29.75, 8.65, -0.032, 0.000, -1.056, 16:16:19.172
94, 290.90, 10.71, 11.88, -11.47, -0.032, 0.000, -1.056, 16:16:19.173
95, 292.30, 10.58, 14.61, -8.31, -0.032, 0.000, -1.056, 16:16:19.173
96, 290.51, 18.35, 16.35, -3.21, -0.032, 0.000, -1.056, 16:16:19.173
97, 292.84, 19.58, 21.63, 2.13, -0.032, 0.000, -1.056, 16:16:19.195
98, 283.68, 12.10, 13.04, -3.25, -0.032, 0.000, -1.056, 16:16:19.195
99, 275.75, 12.85, 11.07, -8.18, -0.032, 0.000, -1.056, 16:16:19.196
100, 281.35, 15.94, 15.46, -4.99, -0.032, 0.000, -1.056, 16:16:19.197
101, 286.50, 23.57, 19.12, 4.70, -0.032, 0.000, -1.056, 16:16:19.218
102, 281.67, 20.59, 22.51, 3.41, -0.032, 0.000, -1.056, 16:16:19.218
103, 266.19, 9.85, 9.94, -13.16, -0.032, 0.000, -1.056, 16:16:19.218
104, 273.48, 16.24, 16.96, -2.55, -0.032, 0.000, -1.056, 16:16:19.219
107, 265.01, 9.77, 9.26, -6.25, -0.032, 0.000, -1.056, 16:16:19.240
108, 271.11, 14.19, 19.31, -3.14, -0.032, 0.000, -1.056, 16:16:19.240
109, 276.64, 21.96, 20.48, 2.67, -0.032, 0.000, -1.056, 16:16:19.241
110, 268.20, 17.11, 20.23, -6.28, -0.032, 0.000, -1.056, 16:16:19.241
111, 266.75, 18.68, 14.23, 0.04, -0.032, 0.000, -1.056, 16:16:19.263
112, 259.32, 14.01, 8.77, -3.91, -0.032, 0.000, -1.056, 16:16:19.263
113, 274.10, 16.35, 17.45, 5.09, -0.032, 0.000, -1.056, 16:16:19.265
114, 263.30, 15.49, 14.89, -2.53, -0.032, 0.000, -1.056, 16:16:19.265
115, 261.57, 9.10, 12.37, -4.88, -0.032, 0.000, -1.056, 16:16:19.285
116, 261.90, 14.25, 17.22, -5.12, -0.032, 0.000, -1.056, 16:16:19.286
117, 267.22, 20.37, 22.19, 3.91, -0.032, 0.000, -1.056, 16:16:19.286
118, 264.54, 10.96, 14.60, -4.98, -0.032, 0.000, -1.056, 16:16:19.286
119, 422.73, 9.54, 13.84, -10.09, -0.032, 0.000, -1.056, 16:16:19.308
120, 649.76, 9.98, 7.78, -8.87, -0.032, 0.000, -1.056, 16:16:19.308
121, 173.99, 7.55, 3.96, -3.22, -0.032, 0.000, -1.056, 16:16:19.308
122, -168.77, 8.41, 12.86, -7.68, -0.032, 0.000, -1.056, 16:16:19.309
125, 178.04, 2.19, 8.01, -13.34, -0.080, 0.032, -1.040, 16:16:19.332
126, 367.83, 37.50, 40.50, 24.11, -0.080, 0.032, -1.040, 16:16:19.332
127, 491.88, 35.86, 40.39, 22.31, -0.080, 0.032, -1.040, 16:16:19.333
128, 737.74, 30.10, 34.25, 15.22, -0.080, 0.032, -1.040, 16:16:19.333
129, 346.44, 41.97, 47.17, 29.81, -0.080, 0.032, -1.040, 16:16:19.354
130, 242.63, 28.93, 37.08, 18.79, -0.080, 0.032, -1.040, 16:16:19.354
131, 225.55, 30.82, 36.00, 21.99, -0.080, 0.032, -1.040, 16:16:19.354
132, 173.26, 40.39, 45.37, 23.77, -0.080, 0.032, -1.040, 16:16:19.355
133, 183.28, 62.95, 52.43, 31.31, -0.080, 0.032, -1.040, 16:16:19.377
134, -84.83, 79.39, 41.45, 22.20, -0.080, 0.032, -1.040, 16:16:19.377
135, -407.01, 386.42, 37.05, 20.62, -0.080, 0.032, -1.040, 16:16:19.377
136, -281.02, 655.96, 38.89, 20.23, -0.080, 0.032, -1.040, 16:16:19.377
137, -124.74, 463.85, 40.99, 25.84, -0.080, 0.032, -1.040, 16:16:19.399
138, 256.09, 449.53, 43.76, 24.33, -0.080, 0.032, -1.040, 16:16:19.399
139, 331.63, 360.75, 26.12, 3.47, -0.080, 0.032, -1.040, 16:16:19.399
140, 348.31, 163.01, 19.52, 7.08, -0.080, 0.032, -1.040, 16:16:19.399
143, 239.92, 324.40, 12.10, 0.59, -0.080, 0.032, -1.040, 16:16:19.420
144, 31.18, 468.62, 23.47, 10.78, -0.080, 0.032, -1.040, 16:16:19.420
145, -84.44, 711.82, 31.79, 16.13, -0.080, 0.000, -1.024, 16:16:19.421
146, -192.77, 709.30, 24.98, 15.44, -0.080, 0.000, -1.024, 16:16:19.421
147, -248.19, 692.76, 32.60, 23.95, -0.080, 0.000, -1.024, 16:16:19.443
148, -414.10, 623.39, 28.25, 14.99, -0.080, 0.000, -1.024, 16:16:19.443
149, -455.11, 450.61, 34.53, 17.77, -0.080, 0.000, -1.024, 16:16:19.443
150, -561.50, 459.12, 24.37, 14.97, -0.080, 0.000, -1.024, 16:16:19.443
151, -714.64, 371.21, 17.34, 9.23, -0.080, 0.000, -1.024, 16:16:19.465
152, -1040.22, 266.17, 24.26, 16.03, -0.080, 0.000, -1.024, 16:16:19.466
153, -1071.44, 312.34, 32.26, 17.10, -0.080, 0.000, -1.024, 16:16:19.466
154, -1267.01, 597.13, 23.98, 13.19, -0.080, 0.000, -1.024, 16:16:19.466
155, -1579.50, 354.42, 13.96, 7.93, -0.080, 0.000, -1.024, 16:16:19.488
156, -2011.94, 425.96, 13.63, 0.41, -0.080, 0.000, -1.024, 16:16:19.489
157, -1775.35, 632.51, 11.31, -2.82, -0.080, 0.000, -1.024, 16:16:19.489
158, -1679.31, 931.71, 58.58, 7.80, -0.080, 0.000, -1.024, 16:16:19.489
161, -1249.54, 1222.28, 137.34, 15.61, -0.080, 0.000, -1.024, 16:16:19.512
162, -1339.65, 1159.67, 379.25, 10.83, -0.080, 0.000, -1.024, 16:16:19.512
163, -1788.08, 696.58, 191.31, 3.22, -0.080, 0.000, -1.024, 16:16:19.513
164, -1670.86, 761.80, 52.57, 5.49, -0.080, 0.000, -1.024, 16:16:19.513
165, -1605.97, 1010.65, 341.60, 16.47, -0.112, 0.048, -1.024, 16:16:19.533
166, -1438.63, 1085.51, 333.17, 4.14, -0.112, 0.048, -1.024, 16:16:19.533
167, -1320.52, 1199.92, 547.10, 4.76, -0.112, 0.048, -1.024, 16:16:19.534
168, -1278.43, 1260.20, 805.71, 14.47, -0.112, 0.048, -1.024, 16:16:19.534
169, -1208.53, 1278.71, 855.02, 21.09, -0.112, 0.048, -1.024, 16:16:19.555
170, -772.88, 1491.90, 713.73, 12.68, -0.112, 0.048, -1.024, 16:16:19.555
171, -510.05, 1333.70, 502.01, 11.91, -0.112, 0.048, -1.024, 16:16:19.556
172, -145.21, 1342.48, 69.29, 15.24, -0.112, 0.048, -1.024, 16:16:19.556
173, 137.33, 1280.58, -5.50, 19.82, -0.112, 0.048, -1.024, 16:16:19.577
174, 175.61, 1269.26, -270.42, 18.57, -0.112, 0.048, -1.024, 16:16:19.578
175, 149.94, 1199.61, -332.60, 3.02, -0.112, 0.048, -1.024, 16:16:19.578
176, 250.29, 1278.45, -729.33, 9.69, -0.112, 0.048, -1.024, 16:16:19.578
179, 212.85, 1388.82, -889.30, 4.84, -0.112, 0.048, -1.024, 16:16:19.600
180, 195.45, 1245.01, -901.24, 15.07, -0.112, 0.048, -1.024, 16:16:19.600
181, 216.88, 1352.83, -1014.81, 13.66, -0.112, 0.048, -1.024, 16:16:19.601
182, 174.61, 1740.71, -881.67, 9.49, -0.112, 0.048, -1.024, 16:16:19.601
183, 49.06, 1885.97, -898.21, 12.81, -0.112, 0.048, -1.024, 16:16:19.623
184, 143.68, 1745.79, -977.16, 6.16, -0.112, 0.048, -1.024, 16:16:19.624
185, 202.19, 1640.46, -758.45, 16.34, 0.000, 0.144, -0.912, 16:16:19.624
186, 101.70, 1767.67, -425.26, 13.60, 0.000, 0.144, -0.912, 16:16:19.624
187, -24.07, 1970.21, -501.31, 5.31, 0.000, 0.144, -0.912, 16:16:19.645
188, -43.36, 2163.34, -523.71, 11.20, 0.000, 0.144, -0.912, 16:16:19.645
189, -11.93, 2426.25, -766.21, 14.16, 0.000, 0.144, -0.912, 16:16:19.645
190, -102.63, 2306.66, -681.69, 5.24, 0.000, 0.144, -0.912, 16:16:19.646
191, -255.39, 2287.06, -558.68, 5.68, 0.000, 0.144, -0.912, 16:16:19.668
192, -226.44, 1958.69, -618.27, 17.07, 0.000, 0.144, -0.912, 16:16:19.668
193, -177.39, 1942.66, -919.89, 11.32, 0.000, 0.144, -0.912, 16:16:19.669
194, -301.73, 1945.48, -893.36, 10.14, 0.000, 0.144, -0.912, 16:16:19.669
197, -175.29, 1987.22, -782.74, 10.64, 0.000, 0.144, -0.912, 16:16:19.690
198, -201.02, 2032.54, -755.44, 10.35, 0.000, 0.144, -0.912, 16:16:19.690
199, -258.09, 2073.94, -758.75, 8.34, 0.000, 0.144, -0.912, 16:16:19.690
200, -166.77, 2046.56, -697.94, 13.38, 0.000, 0.144, -0.912, 16:16:19.691
0, -415.38, 245.59, -249.12, 18.58, 0.000, 0.144, -0.912, 16:16:19.712
1, -230.45, 266.88, -274.63, 5.48, 0.000, 0.144, -0.912, 16:16:19.713
2, -238.56, 323.99, -302.02, 7.66, 0.000, 0.144, -0.912, 16:16:19.713
5, -348.28, 417.71, 17.84, -1.30, -0.048, 0.144, -0.832, 16:16:19.735
6, -412.21, 650.36, 274.56, -2.95, -0.048, 0.144, -0.832, 16:16:19.735
7, -320.09, 850.35, 233.44, 0.35, -0.048, 0.144, -0.832, 16:16:19.736
8, -241.88, 943.40, 271.52, 6.08, -0.048, 0.144, -0.832, 16:16:19.736
9, -310.75, 1039.46, 139.88, 4.51, -0.048, 0.144, -0.832, 16:16:19.757
10, -383.27, 1135.17, 116.74, -5.88, -0.048, 0.144, -0.832, 16:16:19.758
11, -277.66, 1120.52, 169.26, 4.86, -0.048, 0.144, -0.832, 16:16:19.758
12, -182.59, 1069.06, 103.55, 5.16, -0.048, 0.144, -0.832, 16:16:19.759
13, -244.53, 1125.76, -20.63, 2.73, -0.048, 0.144, -0.832, 16:16:19.780
14, -346.44, 961.86, -261.79, -1.50, -0.048, 0.144, -0.832, 16:16:19.780
15, -275.75, 570.90, -598.30, 0.09, -0.048, 0.144, -0.832, 16:16:19.780
16, -208.35, 515.97, -736.30, 8.35, -0.048, 0.144, -0.832, 16:16:19.781
17, -298.63, 580.21, -647.98, 0.08, -0.048, 0.144, -0.832, 16:16:19.802
18, -430.16, 562.38, -518.58, 5.56, -0.048, 0.144, -0.832, 16:16:19.803
19, -431.81, 551.77, -147.24, -3.20, -0.048, 0.144, -0.832, 16:16:19.803
20, -333.99, 621.91, 153.08, 5.34, -0.048, 0.144, -0.832, 16:16:19.803
23, -231.90, 563.66, 491.42, 8.90, -0.048, 0.144, -0.832, 16:16:19.825
24, -100.58, 477.11, 614.39, 15.82, -0.048, 0.144, -0.832, 16:16:19.826
25, -138.96, 466.60, 691.90, 14.17, -0.048, 0.128, -0.976, 16:16:19.826
26, -193.57, 462.00, 720.23, 5.18, -0.048, 0.128, -0.976, 16:16:19.826
27, -111.40, 537.33, 876.21, 19.30, -0.048, 0.128, -0.976, 16:16:19.848
28, -24.93, 373.19, 971.15, 8.81, -0.048, 0.128, -0.976, 16:16:19.848
29, -73.53, 141.61, 849.88, 11.12, -0.048, 0.128, -0.976, 16:16:19.848
30, -144.95, 173.61, 688.46, 3.20, -0.048, 0.128, -0.976, 16:16:19.848
31, -22.61, 185.59, 531.69, 11.31, -0.048, 0.128, -0.976, 16:16:19.870
32, 94.36, 384.74, 488.70, 10.69, -0.048, 0.128, -0.976, 16:16:19.870
33, 38.84, 616.46, 153.02, -3.67, -0.048, 0.128, -0.976, 16:16:19.870
34, -55.71, 668.35, 112.82, -18.75, -0.048, 0.128, -0.976, 16:16:19.871
35, 14.09, 577.63, 48.62, -18.62, -0.048, 0.128, -0.976, 16:16:19.892
36, 94.69, 475.66, 53.42, -13.69, -0.048, 0.128, -0.976, 16:16:19.893
37, 1.73, 426.27, -108.14, -40.95, -0.048, 0.128, -0.976, 16:16:19.893
38, -94.50, 300.31, -372.01, -48.19, -0.048, 0.128, -0.976, 16:16:19.893
41, -211.98, 353.55, -339.51, -69.37, -0.048, 0.128, -0.976, 16:16:19.916
42, -289.40, 375.83, -349.14, -75.50, -0.048, 0.128, -0.976, 16:16:19.916
43, -207.51, 395.86, -207.12, -58.52, -0.048, 0.128, -0.976, 16:16:19.916
44, -162.82, 429.02, -71.30, -45.76, -0.048, 0.128, -0.976, 16:16:19.916
45, -233.96, 506.90, -154.24, -17.31, -0.016, 0.224, -0.992, 16:16:19.937
46, -340.62, 463.90, -96.19, -14.86, -0.016, 0.224, -0.992, 16:16:19.938
47, -253.39, 152.54, 11.67, 5.46, -0.016, 0.224, -0.992, 16:16:19.938
48, -199.53, 114.32, -175.35, 17.87, -0.016, 0.224, -0.992, 16:16:19.938
49, -279.40, 97.15, -291.74, 22.68, -0.016, 0.224, -0.992, 16:16:19.960
50, -353.33, 284.27, -261.05, 28.94, -0.016, 0.224, -0.992, 16:16:19.961
51, -250.22, 433.43, -116.83, 39.07, -0.016, 0.224, -0.992, 16:16:19.962
52, -196.12, 483.53, 40.74, 57.39, -0.016, 0.224, -0.992, 16:16:19.963
53, -281.82, 577.38, 17.59, 61.77, -0.016, 0.224, -0.992, 16:16:19.983
54, -404.88, 686.69, -29.85, 78.80, -0.016, 0.224, -0.992, 16:16:19.983
55, -340.49, 668.33, 86.87, 79.93, -0.016, 0.224, -0.992, 16:16:19.984
56, -247.60, 726.81, 178.06, 79.62, -0.016, 0.224, -0.992, 16:16:19.984
59, -173.07, 614.71, 202.76, 80.94, -0.016, 0.224, -0.992, 16:16:20.005
60, -60.27, 471.76, 310.72, 82.41, -0.016, 0.224, -0.992, 16:16:20.005
61, -99.62, 583.47, 319.72, 78.61, -0.016, 0.224, -0.992, 16:16:20.005
62, -120.20, 755.57, 315.18, 88.76, -0.016, 0.224, -0.992, 16:16:20.006
63, -6.06, 903.17, 382.02, 115.21, -0.016, 0.224, -0.992, 16:16:20.027
64, 90.88, 986.40, 438.84, 104.91, -0.016, 0.224, -0.992, 16:16:20.028
65, 67.22, 1141.69, 415.90, 94.72, -0.048, 0.336, -0.928, 16:16:20.028
66, 2.98, 1243.61, 412.49, 89.71, -0.048, 0.336, -0.928, 16:16:20.028
67, 76.49, 1242.30, 473.13, 104.69, -0.048, 0.336, -0.928, 16:16:20.050
68, 136.01, 1209.25, 487.22, 86.43, -0.048, 0.336, -0.928, 16:16:20.050
69, 0.03, 1219.16, 444.59, 57.33, -0.048, 0.336, -0.928, 16:16:20.051
70, -75.31, 1254.51, 399.62, 99.85, -0.048, 0.336, -0.928, 16:16:20.051
71, -8.72, 1174.41, 430.49, 143.57, -0.048, 0.336, -0.928, 16:16:20.072
72, 69.07, 1099.53, 462.26, 138.96, -0.048, 0.336, -0.928, 16:16:20.073
73, -22.27, 1098.27, 400.28, 113.19, -0.048, 0.336, -0.928, 16:16:20.073
74, -98.31, 1136.59, 340.98, 105.56, -0.048, 0.336, -0.928, 16:16:20.073
77, -178.55, 1129.41, 281.04, 113.67, -0.048, 0.336, -0.928, 16:16:20.095
78, -243.95, 1165.00, 232.03, 137.34, -0.048, 0.336, -0.928, 16:16:20.096
79, -170.10, 1098.04, 264.28, 157.93, -0.048, 0.336, -0.928, 16:16:20.096
80, -102.08, 1027.98, 288.18, 200.51, -0.048, 0.336, -0.928, 16:16:20.096
81, -176.76, 1050.13, 240.32, 170.41, -0.048, 0.336, -0.928, 16:16:20.118
82, -262.24, 1100.20, 187.01, 118.08, -0.048, 0.336, -0.928, 16:16:20.118
83, -198.31, 1062.93, 227.92, 73.57, -0.048, 0.336, -0.928, 16:16:20.118
84, -127.03, 978.93, 261.90, 54.54, -0.048, 0.336, -0.928, 16:16:20.119
85, -225.24, 980.49, 214.07, 74.15, -0.096, 0.368, -0.928, 16:16:20.140
86, -339.84, 1026.30, 167.91, 84.45, -0.096, 0.368, -0.928, 16:16:20.140
87, -356.07, 984.33, 189.06, 139.06, -0.096, 0.368, -0.928, 16:16:20.141
88, -317.02, 943.16, 159.36, 143.06, -0.096, 0.368, -0.928, 16:16:20.141
89, -437.05, 1019.71, 124.07, 150.74, -0.096, 0.368, -0.928, 16:16:20.162
90, -593.81, 1103.54, 68.06, 93.15, -0.096, 0.368, -0.928, 16:16:20.163
91, -640.03, 1041.56, 61.11, 208.86, -0.096, 0.368, -0.928, 16:16:20.163
92, -599.55, 962.09, 71.18, 201.56, -0.096, 0.368, -0.928, 16:16:20.163
95, -498.52, 877.36, 93.18, 123.32, -0.096, 0.368, -0.928, 16:16:20.185
96, -382.98, 783.48, 132.36, 101.18, -0.096, 0.368, -0.928, 16:16:20.185
97, -431.70, 791.62, 90.47, 46.29, -0.096, 0.368, -0.928, 16:16:20.186
98, -507.90, 809.99, 62.52, 20.75, -0.096, 0.368, -0.928, 16:16:20.186
99, -415.87, 763.42, 128.35, -17.44, -0.096, 0.368, -0.928, 16:16:20.207
100, -305.74, 704.39, 182.77, -29.91, -0.096, 0.368, -0.928, 16:16:20.209
101, -346.42, 712.72, 156.12, -1.50, -0.096, 0.368, -0.928, 16:16:20.209
102, -406.31, 759.78, 131.97, 32.12, -0.096, 0.368, -0.928, 16:16:20.210
103, -294.50, 748.22, 196.63, 9.45, -0.096, 0.368, -0.928, 16:16:20.230
104, -167.41, 744.52, 256.78, -30.02, -0.096, 0.368, -0.928, 16:16:20.231
105, -184.94, 817.55, 222.09, -45.98, -0.192, 0.512, -0.992, 16:16:20.231
106, -249.16, 905.12, 183.07, -86.59, -0.192, 0.512, -0.992, 16:16:20.232
107, -104.85, 882.15, 241.63, -112.39, -0.192, 0.512, -0.992, 16:16:20.253
108, 38.85, 852.94, 300.51, -106.38, -0.192, 0.512, -0.992, 16:16:20.253
109, -7.79, 870.77, 249.54, -71.98, -0.192, 0.512, -0.992, 16:16:20.253
110, -22.08, 930.45, 215.46, -30.40, -0.192, 0.512, -0.992, 16:16:20.254
113, -115.55, 932.34, 168.58, -49.01, -0.192, 0.512, -0.992, 16:16:20.275
114, -230.27, 950.00, 125.80, -53.04, -0.192, 0.512, -0.992, 16:16:20.275
115, -179.89, 912.32, 174.37, -46.43, -0.192, 0.512, -0.992, 16:16:20.276
116, -112.47, 876.84, 217.60, -46.79, -0.192, 0.512, -0.992, 16:16:20.276
117, -191.12, 913.78, 180.83, -26.00, -0.192, 0.512, -0.992, 16:16:20.297
118, -306.00, 964.56, 118.10, -33.87, -0.192, 0.512, -0.992, 16:16:20.298
119, -222.15, 962.16, 173.89, -17.41, -0.192, 0.512, -0.992, 16:16:20.298
120, -120.23, 929.89, 213.55, -3.67, -0.192, 0.512, -0.992, 16:16:20.299
121, -166.51, 971.42, 162.26, -8.78, -0.192, 0.512, -0.992, 16:16:20.320
122, -240.66, 1020.98, 106.35, -10.27, -0.192, 0.512, -0.992, 16:16:20.321
123, -169.99, 991.07, 155.56, 1.83, -0.192, 0.512, -0.992, 16:16:20.321
124, -99.20, 959.28, 209.30, 4.84, -0.192, 0.512, -0.992, 16:16:20.321
125, -190.70, 982.79, 170.62, 14.71, -0.112, 0.448, -0.928, 16:16:20.342
126, -298.08, 1021.20, 130.28, 40.88, -0.112, 0.448, -0.928, 16:16:20.343
127, -259.74, 983.09, 162.03, 40.59, -0.112, 0.448, -0.928, 16:16:20.343
128, -185.18, 950.71, 219.61, 54.97, -0.112, 0.448, -0.928, 16:16:20.343
131, -139.45, 918.81, 262.76, 63.61, -0.112, 0.448, -0.928, 16:16:20.365
132, -63.54, 893.53, 314.87, 58.47, -0.112, 0.448, -0.928, 16:16:20.366
133, -132.36, 909.18, 279.82, 138.20, -0.112, 0.448, -0.928, 16:16:20.366
134, -227.65, 938.63, 240.60, 427.15, -0.112, 0.448, -0.928, 16:16:20.366
135, -152.83, 920.42, 291.54, 497.05, -0.112, 0.448, -0.928, 16:16:20.388
136, -83.43, 869.64, 333.34, 483.94, -0.112, 0.448, -0.928, 16:16:20.388
137, -171.89, 888.59, 294.50, 557.95, -0.112, 0.448, -0.928, 16:16:20.388
138, -285.15, 915.37, 246.22, 592.02, -0.112, 0.448, -0.928, 16:16:20.388
139, -216.10, 881.18, 298.27, 524.34, -0.112, 0.448, -0.928, 16:16:20.410
140, -142.82, 845.63, 356.74, 467.26, -0.112, 0.448, -0.928, 16:16:20.410
141, -217.17, 871.12, 315.37, 420.70, -0.112, 0.448, -0.928, 16:16:20.410
142, -306.26, 911.96, 273.38, 377.07, -0.112, 0.448, -0.928, 16:16:20.410
143, -220.03, 909.12, 309.11, 312.50, -0.112, 0.448, -0.928, 16:16:20.432
144, -109.99, 906.95, 346.04, 243.02, -0.112, 0.448, -0.928, 16:16:20.432
145, -168.59, 939.59, 288.05, 185.02, -0.112, 0.464, -0.912, 16:16:20.433
146, -254.38, 995.74, 235.63, 72.53, -0.112, 0.464, -0.912, 16:16:20.433
149, -318.93, 1021.56, 186.05, 75.20, -0.112, 0.464, -0.912, 16:16:20.455
150, -412.96, 1064.34, 138.56, 91.18, -0.112, 0.464, -0.912, 16:16:20.456
151, -352.49, 1038.34, 180.59, 80.93, -0.112, 0.464, -0.912, 16:16:20.459
152, -270.13, 977.41, 224.80, 51.61, -0.112, 0.464, -0.912, 16:16:20.459
153, -353.52, 974.69, 185.29, 16.83, -0.112, 0.464, -0.912, 16:16:20.477
154, -485.55, 989.34, 128.03, -12.20, -0.112, 0.464, -0.912, 16:16:20.477
155, -495.56, 988.54, 180.14, 131.93, -0.112, 0.464, -0.912, 16:16:20.478
156, -457.82, 962.13, 217.52, 120.44, -0.112, 0.464, -0.912, 16:16:20.478
157, -524.96, 952.12, 172.24, 137.95, -0.112, 0.464, -0.912, 16:16:20.500
158, -711.07, 967.66, 120.88, 85.50, -0.112, 0.464, -0.912, 16:16:20.500
159, -763.23, 944.73, 161.58, 65.75, -0.112, 0.464, -0.912, 16:16:20.501
160, -681.97, 916.66, 199.90, 53.20, -0.112, 0.464, -0.912, 16:16:20.501
161, -708.12, 935.87, 158.68, 71.86, -0.112, 0.464, -0.912, 16:16:20.524
162, -766.75, 980.45, 118.87, 111.63, -0.112, 0.464, -0.912, 16:16:20.524
163, -647.00, 971.52, 154.65, 120.82, -0.112, 0.464, -0.912, 16:16:20.547
164, -477.61, 977.83, 205.21, 139.19, -0.112, 0.464, -0.912, 16:16:20.547
167, -365.67, 996.05, 247.57, 127.75, -0.112, 0.464, -0.912, 16:16:20.547
168, -211.11, 989.72, 295.91, 85.49, -0.112, 0.464, -0.912, 16:16:20.549
169, -251.67, 1022.23, 253.17, 66.13, -0.112, 0.464, -0.912, 16:16:20.569
170, -362.68, 1054.44, 211.25, 53.38, -0.112, 0.464, -0.912, 16:16:20.569
171, -165.44, 1051.40, 253.93, 60.90, -0.112, 0.464, -0.912, 16:16:20.570
172, -58.57, 1004.63, 282.78, 55.44, -0.112, 0.464, -0.912, 16:16:20.570
173, -132.01, 998.93, 249.88, 132.83, -0.112, 0.464, -0.912, 16:16:20.590
174, -261.67, 978.18, 209.19, 219.57, -0.112, 0.464, -0.912, 16:16:20.590
175, -235.95, 942.48, 259.01, 392.91, -0.112, 0.464, -0.912, 16:16:20.591
176, -175.49, 899.74, 306.23, 393.37, -0.112, 0.464, -0.912, 16:16:20.591
179, -103.45, 859.57, 354.21, 396.26, -0.112, 0.464, -0.912, 16:16:20.613
180, -13.88, 832.64, 401.39, 447.56, -0.112, 0.464, -0.912, 16:16:20.613
181, -114.02, 834.58, 359.15, 533.34, -0.112, 0.464, -0.912, 16:16:20.613
182, -219.46, 873.39, 314.30, 532.00, -0.112, 0.464, -0.912, 16:16:20.614
185, -266.97, 888.33, 271.34, 486.96, -0.160, 0.592, -0.816, 16:16:20.657
186, -361.63, 928.01, 220.85, 509.41, -0.160, 0.592, -0.816, 16:16:20.658
187, -271.24, 936.19, 256.12, 581.18, -0.160, 0.592, -0.816, 16:16:20.658
188, -149.41, 918.15, 292.24, 513.45, -0.160, 0.592, -0.816, 16:16:20.658
189, -203.35, 938.74, 259.80, 496.93, -0.160, 0.592, -0.816, 16:16:20.680
190, -313.39, 965.81, 202.75, 472.44, -0.160, 0.592, -0.816, 16:16:20.680
191, -223.96, 973.18, 247.18, 420.76, -0.160, 0.592, -0.816, 16:16:20.681
192, -130.48, 957.62, 285.42, 335.31, -0.160, 0.592, -0.816, 16:16:20.681
193, -198.56, 968.46, 245.50, 269.77, -0.160, 0.592, -0.816, 16:16:20.702
194, -319.08, 1016.11, 196.43, 158.11, -0.160, 0.592, -0.816, 16:16:20.703
195, -256.45, 1000.90, 235.82, 4.26, -0.160, 0.592, -0.816, 16:16:20.704
196, -160.78, 968.27, 271.19, -87.39, -0.160, 0.592, -0.816, 16:16:20.704
197, -248.09, 961.55, 231.59, -108.18, -0.160, 0.592, -0.816, 16:16:20.725
198, -392.72, 970.88, 182.02, -78.18, -0.160, 0.592, -0.816, 16:16:20.725
1, -507.58, 982.82, 137.13, -18.32, -0.160, 0.592, -0.816, 16:16:20.726
2, -441.60, 971.05, 177.86, 14.16, -0.160, 0.592, -0.816, 16:16:20.726
5, -546.79, 1003.96, 130.01, 46.40, -0.128, 0.592, -0.816, 16:16:20.749
6, -464.14, 1011.88, 177.70, 52.98, -0.128, 0.592, -0.816, 16:16:20.749
7, -359.88, 984.84, 212.04, 31.05, -0.128, 0.592, -0.816, 16:16:20.749
8, -406.31, 994.91, 178.74, 59.84, -0.128, 0.592, -0.816, 16:16:20.749
11, -287.98, 996.30, 219.87, 39.30, -0.128, 0.592, -0.816, 16:16:20.770
12, -336.40, 1017.43, 187.80, 90.34, -0.128, 0.592, -0.816, 16:16:20.770
13, -454.84, 1044.18, 147.92, 153.17, -0.128, 0.592, -0.816, 16:16:20.771
14, -384.34, 1037.23, 189.41, 206.26, -0.128, 0.592, -0.816, 16:16:20.771
15, -270.65, 1016.46, 239.37, 364.12, -0.128, 0.592, -0.816, 16:16:20.793
16, -339.78, 1005.21, 207.36, 506.73, -0.128, 0.592, -0.816, 16:16:20.793
17, -451.91, 1036.43, 171.07, 772.20, -0.128, 0.592, -0.816, 16:16:20.793
18, -343.33, 1021.07, 226.66, 1092.48, -0.128, 0.592, -0.816, 16:16:20.794
19, -232.88, 987.54, 272.25, 1293.43, -0.128, 0.592, -0.816, 16:16:20.815
20, -310.49, 988.49, 225.35, 995.27, -0.128, 0.592, -0.816, 16:16:20.815
21, -428.96, 1013.69, 171.53, 1004.38, -0.128, 0.592, -0.816, 16:16:20.815
22, -356.09, 1012.97, 195.94, 791.95, -0.128, 0.592, -0.816, 16:16:20.816
23, -405.89, 987.07, 241.93, 497.44, -0.128, 0.592, -0.816, 16:16:20.837
24, -610.82, 991.95, 205.13, 440.26, -0.128, 0.592, -0.816, 16:16:20.838
25, -733.70, 997.69, 151.55, 461.14, -0.144, 0.672, -0.816, 16:16:20.838
26, -629.62, 997.86, 184.20, 302.60, -0.144, 0.672, -0.816, 16:16:20.838
29, -731.66, 1052.40, 133.39, 327.12, -0.144, 0.672, -0.816, 16:16:20.860
30, -668.01, 1063.79, 172.49, 248.66, -0.144, 0.672, -0.816, 16:16:20.860
31, -559.10, 1036.76, 211.21, 356.17, -0.144, 0.672, -0.816, 16:16:20.860
32, -667.97, 1007.67, 175.63, 229.27, -0.144, 0.672, -0.816, 16:16:20.860
33, -826.79, 996.95, 118.17, 52.12, -0.144, 0.672, -0.816, 16:16:20.882
34, -833.09, 937.29, 126.44, -233.76, -0.144, 0.672, -0.816, 16:16:20.883
35, -758.26, 885.00, 163.61, -495.31, -0.144, 0.672, -0.816, 16:16:20.883
36, -887.23, 894.22, 124.19, -395.47, -0.144, 0.672, -0.816, 16:16:20.883
37, -1054.35, 888.34, 57.41, -569.30, -0.144, 0.672, -0.816, 16:16:20.921
38, -981.58, 869.39, 69.70, -1050.76, -0.144, 0.672, -0.816, 16:16:20.922
39, -868.02, 849.41, 135.99, -1491.68, -0.144, 0.672, -0.816, 16:16:20.922
40, -901.41, 838.60, 159.53, -1578.52, -0.144, 0.672, -0.816, 16:16:20.922
41, -949.81, 854.82, 153.78, -1331.84, -0.144, 0.672, -0.816, 16:16:20.927
42, -774.42, 878.98, 189.89, -1303.58, -0.144, 0.672, -0.816, 16:16:20.928
43, -605.24, 868.03, 213.77, -1393.36, -0.144, 0.672, -0.816, 16:16:20.928
44, -651.99, 888.28, 179.74, -1404.47, -0.144, 0.672, -0.816, 16:16:20.928
47, -518.55, 870.76, 206.85, -1572.33, -0.144, 0.672, -0.816, 16:16:20.950
48, -583.62, 877.11, 161.28, -1913.96, -0.144, 0.672, -0.816, 16:16:20.950
49, -721.13, 887.68, 111.75, -2250.56, -0.144, 0.672, -0.816, 16:16:20.950
50, -630.67, 895.04, 139.65, -2283.34, -0.144, 0.672, -0.816, 16:16:20.951
51, -471.44, 902.56, 178.09, -2135.90, -0.144, 0.672, -0.816, 16:16:20.973
52, -538.52, 898.37, 132.49, -1985.51, -0.144, 0.672, -0.816, 16:16:20.973
53, -638.88, 937.51, 83.84, -1815.67, -0.144, 0.672, -0.816, 16:16:20.973
54, -522.41, 977.16, 104.39, -1641.37, -0.144, 0.672, -0.816, 16:16:20.973
55, -332.38, 999.06, 141.35, -1601.57, -0.144, 0.672, -0.816, 16:16:20.995
56, -272.14, 1022.35, 103.67, -1532.47, -0.144, 0.672, -0.816, 16:16:20.996
57, -372.83, 1082.71, 42.70, -1393.89, -0.144, 0.672, -0.816, 16:16:20.996
58, -235.54, 1117.93, 61.28, -1280.45, -0.144, 0.672, -0.816, 16:16:20.996
59, -33.31, 1116.05, 84.85, -1259.66, -0.144, 0.672, -0.816, 16:16:21.018
60, -98.05, 1149.72, 51.77, -1141.76, -0.144, 0.672, -0.816, 16:16:21.018
61, -173.60, 1187.23, 1.44, -1073.97, -0.144, 0.672, -0.816, 16:16:21.019
62, -39.67, 1216.97, 58.74, -903.70, -0.144, 0.672, -0.816, 16:16:21.019
65, -206.69, 1253.60, -30.04, -873.28, -0.160, 0.656, -0.752, 16:16:21.040
66, -193.45, 1232.82, -410.90, -838.92, -0.160, 0.656, -0.752, 16:16:21.040
67, -117.57, 1191.38, -314.98, -919.88, -0.160, 0.656, -0.752, 16:16:21.041
68, -205.48, 1163.87, -286.33, -823.69, -0.160, 0.656, -0.752, 16:16:21.041
69, -349.60, 1154.33, -275.04, -721.88, -0.160, 0.656, -0.752, 16:16:21.062
70, -358.85, 1113.35, -156.58, -705.50, -0.160, 0.656, -0.752, 16:16:21.063
71, -293.17, 1083.65, 0.38, -764.74, -0.160, 0.656, -0.752, 16:16:21.063
72, -369.94, 1060.18, 54.82, -749.73, -0.160, 0.656, -0.752, 16:16:21.063
73, -537.06, 1062.00, 72.45, -706.04, -0.160, 0.656, -0.752, 16:16:21.085
74, -508.33, 1034.14, 161.08, -739.81, -0.160, 0.656, -0.752, 16:16:21.086
75, -421.50, 994.89, 245.86, -761.42, -0.160, 0.656, -0.752, 16:16:21.086
76, -499.39, 966.15, 232.25, -744.91, -0.160, 0.656, -0.752, 16:16:21.087
77, -652.35, 970.36, 190.53, -713.64, -0.160, 0.656, -0.752, 16:16:21.107
78, -605.78, 959.14, 252.23, -727.17, -0.160, 0.656, -0.752, 16:16:21.108
79, -527.98, 918.64, 296.91, -760.06, -0.160, 0.656, -0.752, 16:16:21.108
80, -598.56, 901.06, 266.57, -738.29, -0.160, 0.656, -0.752, 16:16:21.108
83, -482.23, 872.28, 314.53, -735.60, -0.160, 0.656, -0.752, 16:16:21.130
84, -525.56, 876.11, 266.59, -709.03, -0.160, 0.656, -0.752, 16:16:21.130
85, -652.67, 884.02, 206.32, -704.51, -0.160, 0.720, -0.704, 16:16:21.131
86, -613.38, 897.46, 236.68, -752.55, -0.160, 0.720, -0.704, 16:16:21.131
87, -559.69, 899.22, 288.58, -850.81, -0.160, 0.720, -0.704, 16:16:21.153
88, -683.54, 889.93, 233.59, -835.76, -0.160, 0.720, -0.704, 16:16:21.153
89, -920.23, 910.07, 178.25, -810.54, -0.160, 0.720, -0.704, 16:16:21.154
90, -883.81, 928.39, 210.86, -836.73, -0.160, 0.720, -0.704, 16:16:21.154
91, -755.51, 917.12, 267.59, -864.85, -0.160, 0.720, -0.704, 16:16:21.175
92, -808.36, 906.06, 225.39, -812.86, -0.160, 0.720, -0.704, 16:16:21.175
93, -918.01, 923.40, 172.60, -789.45, -0.160, 0.720, -0.704, 16:16:21.176
94, -845.72, 947.37, 206.97, -794.15, -0.160, 0.720, -0.704, 16:16:21.176
95, -730.53, 942.69, 255.07, -808.33, -0.160, 0.720, -0.704, 16:16:21.197
96, -774.77, 950.43, 229.63, -796.89, -0.160, 0.720, -0.704, 16:16:21.198
97, -902.08, 963.66, 162.60, -814.25, -0.160, 0.720, -0.704, 16:16:21.199
98, -944.70, 980.08, 199.95, -926.30, -0.160, 0.720, -0.704, 16:16:21.199
101, -1081.22, 979.45, 144.97, -611.30, -0.160, 0.720, -0.704, 16:16:21.220
102, -1004.73, 984.42, 176.90, -886.13, -0.160, 0.720, -0.704, 16:16:21.221
103, -831.83, 965.73, 218.57, -989.74, -0.160, 0.720, -0.704, 16:16:21.221
104, -911.56, 947.34, 182.96, -983.46, -0.160, 0.720, -0.704, 16:16:21.221
105, -990.82, 961.44, 135.13, -1024.88, -0.192, 0.720, -0.720, 16:16:21.242
106, -913.82, 957.94, 156.33, -1153.43, -0.192, 0.720, -0.720, 16:16:21.243
107, -732.12, 953.70, 207.99, -1187.96, -0.192, 0.720, -0.720, 16:16:21.243
108, -730.12, 926.35, 173.69, -1206.68, -0.192, 0.720, -0.720, 16:16:21.243
109, -835.56, 920.36, 117.19, -1196.87, -0.192, 0.720, -0.720, 16:16:21.265
110, -757.99, 939.09, 146.92, -1229.10, -0.192, 0.720, -0.720, 16:16:21.265
111, -615.77, 950.99, 189.46, -1242.07, -0.192, 0.720, -0.720, 16:16:21.266
112, -673.96, 945.67, 154.96, -1308.26, -0.192, 0.720, -0.720, 16:16:21.266
113, -831.94, 916.33, 99.65, -1370.66, -0.192, 0.720, -0.720, 16:16:21.288
114, -770.56, 927.78, 134.22, -1410.65, -0.192, 0.720, -0.720, 16:16:21.288
115, -633.60, 920.57, 170.14, -1408.06, -0.192, 0.720, -0.720, 16:16:21.288
116, -651.93, 907.07, 143.94, -1368.65, -0.192, 0.720, -0.720, 16:16:21.288
119, -513.18, 907.63, 187.32, -1371.75, -0.192, 0.720, -0.720, 16:16:21.310
120, -549.71, 908.08, 159.70, -1359.99, -0.192, 0.720, -0.720, 16:16:21.310
121, -680.26, 910.51, 104.73, -1349.71, -0.192, 0.720, -0.720, 16:16:21.310
122, -621.97, 938.63, 132.61, -1407.85, -0.192, 0.720, -0.720, 16:16:21.311
123, -474.67, 957.25, 180.22, -1521.67, -0.192, 0.720, -0.720, 16:16:21.332
124, -532.69, 961.68, 135.53, -1553.76, -0.192, 0.720, -0.720, 16:16:21.333
125, -660.60, 978.56, 79.14, -1526.63, -0.144, 0.720, -0.640, 16:16:21.333
126, -581.41, 988.52, 103.67, -1535.89, -0.144, 0.720, -0.640, 16:16:21.334
127, -442.91, 970.26, 149.66, -1618.61, -0.144, 0.720, -0.640, 16:16:21.355
128, -502.19, 929.58, 110.02, -1657.38, -0.144, 0.720, -0.640, 16:16:21.355
129, -647.54, 902.71, 54.98, -1573.66, -0.144, 0.720, -0.640, 16:16:21.356
130, -590.69, 900.29, 87.99, -1453.95, -0.144, 0.720, -0.640, 16:16:21.356
131, -491.04, 885.21, 149.95, -1501.72, -0.144, 0.720, -0.640, 16:16:21.378
132, -572.48, 870.55, 129.97, -1475.30, -0.144, 0.720, -0.640, 16:16:21.378
133, -746.50, 881.67, 68.02, -1445.68, -0.144, 0.720, -0.640, 16:16:21.378
134, -685.11, 909.75, 75.49, -1408.42, -0.144, 0.720, -0.640, 16:16:21.378
137, -952.76, 922.39, 19.12, -1361.72, -0.144, 0.720, -0.640, 16:16:21.400
138, -947.05, 918.41, 92.20, -1294.82, -0.144, 0.720, -0.640, 16:16:21.400
139, -801.95, 923.63, 188.85, -1283.34, -0.144, 0.720, -0.640, 16:16:21.401
140, -815.13, 907.80, 206.96, -1287.02, -0.144, 0.720, -0.640, 16:16:21.401
141, -934.37, 895.17, 193.13, -1240.13, -0.144, 0.720, -0.640, 16:16:21.422
142, -841.04, 886.92, 236.03, -1257.82, -0.144, 0.720, -0.640, 16:16:21.423
143, -662.57, 873.15, 299.47, -1282.17, -0.144, 0.720, -0.640, 16:16:21.423
144, -685.85, 840.09, 278.73, -1216.88, -0.144, 0.720, -0.640, 16:16:21.423
145, -832.25, 829.16, 211.77, -1194.99, -0.208, 0.768, -0.672, 16:16:21.445
146, -755.81, 846.07, 238.65, -1214.13, -0.208, 0.768, -0.672, 16:16:21.445
147, -579.36, 854.68, 284.47, -1254.35, -0.208, 0.768, -0.672, 16:16:21.445
148, -597.25, 845.54, 251.04, -1252.82, -0.208, 0.768, -0.672, 16:16:21.445
149, -731.37, 855.32, 196.99, -1244.33, -0.208, 0.768, -0.672, 16:16:21.467
150, -651.28, 900.80, 226.37, -1235.92, -0.208, 0.768, -0.672, 16:16:21.468
151, -506.56, 907.03, 264.41, -1217.20, -0.208, 0.768, -0.672, 16:16:21.468
152, -542.84, 906.92, 233.18, -1221.94, -0.208, 0.768, -0.672, 16:16:21.468
155, -397.68, 903.52, 273.04, -1235.52, -0.208, 0.768, -0.672, 16:16:21.490
156, -456.82, 887.25, 243.30, -1296.45, -0.208, 0.768, -0.672, 16:16:21.490
157, -627.23, 879.30, 188.08, -1297.57, -0.208, 0.768, -0.672, 16:16:21.491
158, -579.90, 889.91, 219.46, -1296.83, -0.208, 0.768, -0.672, 16:16:21.491
159, -443.59, 893.66, 269.73, -1328.77, -0.208, 0.768, -0.672, 16:16:21.513
160, -521.31, 874.52, 231.89, -1369.45, -0.208, 0.768, -0.672, 16:16:21.513
161, -684.73, 883.21, 163.93, -1350.54, -0.208, 0.768, -0.672, 16:16:21.513
162, -629.70, 933.04, 130.82, -1308.31, -0.208, 0.768, -0.672, 16:16:21.513
163, -447.91, 960.95, 149.02, -1284.34, -0.208, 0.768, -0.672, 16:16:21.535
164, -481.56, 959.16, 155.99, -1333.74, -0.208, 0.768, -0.672, 16:16:21.535
165, -644.96, 962.61, 186.23, -1428.50, -0.144, 0.768, -0.672, 16:16:21.536
166, -626.94, 996.17, 267.91, -1484.12, -0.144, 0.768, -0.672, 16:16:21.536
167, -556.42, 942.35, 169.07, -1526.59, -0.144, 0.768, -0.672, 16:16:21.557
168, -636.36, 892.78, 48.70, -1539.01, -0.144, 0.768, -0.672, 16:16:21.558
169, -811.14, 842.07, -12.42, -1530.41, -0.144, 0.768, -0.672, 16:16:21.558
170, -733.47, 814.12, -37.56, -1523.35, -0.144, 0.768, -0.672, 16:16:21.558
173, -935.25, 804.08, -80.01, -1567.27, -0.144, 0.768, -0.672, 16:16:21.580
174, -826.12, 827.02, -23.92, -1539.04, -0.144, 0.768, -0.672, 16:16:21.580
175, -585.90, 864.09, 59.97, -1500.62, -0.144, 0.768, -0.672, 16:16:21.581
176, -528.48, 896.74, 50.58, -1457.09, -0.144, 0.768, -0.672, 16:16:21.581
177, -580.66, 941.51, 15.31, -1365.69, -0.144, 0.768, -0.672, 16:16:21.602
178, -450.02, 1036.05, 66.64, -1290.21, -0.144, 0.768, -0.672, 16:16:21.603
179, -231.92, 1140.78, 151.98, -1286.97, -0.144, 0.768, -0.672, 16:16:21.604
180, -234.42, 1157.51, 164.14, -1292.10, -0.144, 0.768, -0.672, 16:16:21.604
181, -345.11, 1171.95, 148.21, -1283.99, -0.144, 0.768, -0.672, 16:16:21.626
182, -269.39, 1224.80, 202.28, -1265.69, -0.144, 0.768, -0.672, 16:16:21.626
183, -75.93, 1256.71, 249.83, -1274.63, -0.144, 0.768, -0.672, 16:16:21.626
184, -115.46, 1230.77, 215.21, -1235.41, -0.144, 0.768, -0.672, 16:16:21.626
185, -317.89, 1233.94, 180.92, -1222.75, -0.096, 0.800, -0.640, 16:16:21.647
186, -288.28, 1228.13, 343.46, -1236.51, -0.096, 0.800, -0.640, 16:16:21.648
187, -218.33, 1179.28, 445.44, -1261.31, -0.096, 0.800, -0.640, 16:16:21.648
188, -326.42, 1127.43, 422.79, -1265.15, -0.096, 0.800, -0.640, 16:16:21.648
191, -194.60, 1123.98, 449.76, -1262.42, -0.096, 0.800, -0.640, 16:16:21.670
192, -242.95, 1106.69, 424.68, -1256.86, -0.096, 0.800, -0.640, 16:16:21.670
193, -434.81, 1097.01, 366.84, -1233.05, -0.096, 0.800, -0.640, 16:16:21.671
194, -402.87, 1100.53, 388.74, -1206.47, -0.096, 0.800, -0.640, 16:16:21.671
195, -264.91, 1101.30, 431.36, -1235.08, -0.096, 0.800, -0.640, 16:16:21.692
196, -317.51, 1071.05, 393.63, -1249.93, -0.096, 0.800, -0.640, 16:16:21.692
197, -483.76, 1054.39, 332.44, -1238.15, -0.096, 0.800, -0.640, 16:16:21.693
198, -430.78, 1064.00, 353.83, -1253.15, -0.096, 0.800, -0.640, 16:16:21.693
199, -277.09, 1073.03, 393.81, -1261.06, -0.096, 0.800, -0.640, 16:16:21.715
200, -314.04, 1060.88, 365.27, -1258.90, -0.096, 0.800, -0.640, 16:16:21.715
0, -298.50, -19.69, 21.62, 90.33, -0.096, 0.800, -0.640, 16:16:21.716
3, -295.88, -30.96, -1.99, 102.86, -0.096, 0.800, -0.640, 16:16:21.738
4, -460.60, -49.13, -59.62, 65.01, -0.096, 0.800, -0.640, 16:16:21.738
5, -374.30, -17.59, -42.73, -20.77, -0.096, 0.816, -0.624, 16:16:21.738
6, -204.75, 6.40, -2.61, -34.41, -0.096, 0.816, -0.624, 16:16:21.738
7, -211.15, -4.04, -37.07, 6.09, -0.096, 0.816, -0.624, 16:16:21.760
8, -349.29, -21.04, -115.41, 70.09, -0.096, 0.816, -0.624, 16:16:21.760
9, -286.23, -5.97, -104.84, 86.32, -0.096, 0.816, -0.624, 16:16:21.761
10, -195.23, -1.58, -58.45, 63.89, -0.096, 0.816, -0.624, 16:16:21.761
11, -278.77, -37.81, -70.36, 79.89, -0.096, 0.816, -0.624, 16:16:21.782
12, -477.87, -59.21, -110.16, 116.87, -0.096, 0.816, -0.624, 16:16:21.783
13, -457.12, -62.45, -90.94, 118.15, -0.096, 0.816, -0.624, 16:16:21.783
14, -326.35, -69.01, -32.90, 107.41, -0.096, 0.816, -0.624, 16:16:21.784
17, -283.40, -80.34, -6.83, 103.43, -0.096, 0.816, -0.624, 16:16:21.805
18, -145.67, -71.37, 46.86, 115.31, -0.096, 0.816, -0.624, 16:16:21.806
19, -206.44, -86.08, 28.73, 127.45, -0.096, 0.816, -0.624, 16:16:21.828
20, -378.60, -107.21, -29.56, 61.95, -0.096, 0.816, -0.624, 16:16:21.828
21, -343.11, -94.03, 5.18, 49.92, -0.096, 0.816, -0.624, 16:16:21.828
22, -207.66, -115.13, 48.36, -31.83, -0.096, 0.816, -0.624, 16:16:21.828
23, -260.88, -143.29, 37.23, 11.80, -0.096, 0.816, -0.624, 16:16:21.850
24, -437.76, -164.46, -12.24, 39.16, -0.096, 0.816, -0.624, 16:16:21.850
25, -390.95, -138.97, 8.32, -3.73, -0.144, 0.784, -0.608, 16:16:21.851
26, -234.98, -127.55, 52.12, 6.73, -0.144, 0.784, -0.608, 16:16:21.851
27, -244.07, -149.82, 37.53, 43.04, -0.144, 0.784, -0.608, 16:16:21.872
28, -433.10, -174.85, -17.46, 70.90, -0.144, 0.784, -0.608, 16:16:21.873
29, -384.63, -155.60, 7.66, 56.56, -0.144, 0.784, -0.608, 16:16:21.873
30, -213.01, -147.70, 50.69, -3.27, -0.144, 0.784, -0.608, 16:16:21.874
35, -269.65, -154.86, 41.14, 16.06, -0.144, 0.784, -0.608, 16:16:21.895
36, -467.08, -156.80, -11.51, 24.51, -0.144, 0.784, -0.608, 16:16:21.895
37, -460.84, -138.78, 11.82, -9.30, -0.144, 0.784, -0.608, 16:16:21.895
38, -316.97, -120.89, 56.07, -10.52, -0.144, 0.784, -0.608, 16:16:21.895
39, -367.39, -130.68, -298.87, -10.86, -0.144, 0.784, -0.608, 16:16:21.917
40, -564.41, -165.92, -306.23, -12.30, -0.144, 0.784, -0.608, 16:16:21.917
41, -501.13, -139.32, -227.58, -18.91, -0.144, 0.784, -0.608, 16:16:21.918
42, -326.50, -130.52, -131.18, -21.27, -0.144, 0.784, -0.608, 16:16:21.918
43, -299.20, -147.45, -124.73, -13.59, -0.144, 0.784, -0.608, 16:16:21.941
44, -448.13, -157.39, -164.88, -4.38, -0.144, 0.784, -0.608, 16:16:21.941
45, -385.08, -124.74, -125.45, 5.68, -0.128, 0.816, -0.640, 16:16:21.941
46, -191.73, -95.24, -54.24, 13.30, -0.128, 0.816, -0.640, 16:16:21.942
47, -170.23, -90.62, -55.01, 49.52, -0.128, 0.816, -0.640, 16:16:21.962
48, -275.90, -75.55, -85.12, 109.69, -0.128, 0.816, -0.640, 16:16:21.963
49, -167.18, -27.53, -45.57, 41.50, -0.128, 0.816, -0.640, 16:16:21.963
50, 55.53, 18.51, 13.27, -1.08, -0.128, 0.816, -0.640, 16:16:21.963
53, 133.90, 56.69, 125.59, 2.04, -0.128, 0.816, -0.640, 16:16:21.985
54, 320.80, 108.12, 241.15, 106.98, -0.128, 0.816, -0.640, 16:16:21.985
55, 303.55, 87.17, 211.89, 56.77, -0.128, 0.816, -0.640, 16:16:21.986
56, 100.64, 73.41, 136.35, 90.52, -0.128, 0.816, -0.640, 16:16:21.986
57, 126.91, 79.15, 132.98, 162.09, -0.128, 0.816, -0.640, 16:16:22.007
58, 266.23, 46.48, 163.17, -38.03, -0.128, 0.816, -0.640, 16:16:22.008
59, 211.24, 11.30, 152.07, 183.24, -0.128, 0.816, -0.640, 16:16:22.009
60, -1.34, -26.78, 113.57, 403.10, -0.128, 0.816, -0.640, 16:16:22.009
61, -8.59, -16.26, 133.57, 517.23, -0.128, 0.816, -0.640, 16:16:22.030
62, 126.46, -8.43, 179.53, 428.10, -0.128, 0.816, -0.640, 16:16:22.030
63, 106.24, -23.90, 157.02, 353.72, -0.128, 0.816, -0.640, 16:16:22.030
64, -54.27, -36.77, 100.47, 322.52, -0.128, 0.816, -0.640, 16:16:22.031
65, -22.88, 11.80, 121.07, 299.36, -0.096, 0.800, -0.688, 16:16:22.053
66, 99.95, 29.53, 167.87, 264.04, -0.096, 0.800, -0.688, 16:16:22.053
67, -34.68, -2.88, 141.88, 197.19, -0.096, 0.800, -0.688, 16:16:22.053
68, -215.32, -10.86, 92.38, 198.78, -0.096, 0.800, -0.688, 16:16:22.054
71, -218.50, -27.55, 76.98, 163.59, -0.096, 0.800, -0.688, 16:16:22.075
72, -381.83, -49.28, 18.65, 162.20, -0.096, 0.800, -0.688, 16:16:22.075
73, -349.58, -39.43, 32.86, 141.33, -0.096, 0.800, -0.688, 16:16:22.075
74, -201.60, -49.99, 77.43, 99.86, -0.096, 0.800, -0.688, 16:16:22.075
75, -227.67, -60.29, 59.20, 141.68, -0.096, 0.800, -0.688, 16:16:22.098
76, -406.25, -100.29, -5.40, 209.23, -0.096, 0.800, -0.688, 16:16:22.098
77, -386.94, -69.30, 16.48, 256.03, -0.096, 0.800, -0.688, 16:16:22.099
78, -251.42, -51.66, 65.10, 234.38, -0.096, 0.800, -0.688, 16:16:22.099
79, -211.81, -52.08, 52.02, 251.83, -0.096, 0.800, -0.688, 16:16:22.120
80, -365.00, -58.94, 2.88, 261.34, -0.096, 0.800, -0.688, 16:16:22.120
81, -287.26, -34.41, 27.79, 366.00, -0.096, 0.800, -0.688, 16:16:22.122
82, -139.90, -20.74, 76.44, 400.65, -0.096, 0.800, -0.688, 16:16:22.122
83, -167.39, -47.73, 68.43, 449.71, -0.096, 0.800, -0.688, 16:16:22.142
84, -332.88, -68.68, 30.39, 753.62, -0.096, 0.800, -0.688, 16:16:22.143
85, -318.48, -86.88, 39.78, 819.71, -0.048, 0.752, -0.576, 16:16:22.143
86, -178.26, -82.29, 89.29, 751.83, -0.048, 0.752, -0.576, 16:16:22.143
89, -162.92, -73.20, 105.55, 626.57, -0.048, 0.752, -0.576, 16:16:22.166
90, -31.60, -70.57, 142.79, 413.59, -0.048, 0.752, -0.576, 16:16:22.167
91, -68.52, -87.70, 128.19, 282.79, -0.048, 0.752, -0.576, 16:16:22.167
92, -256.78, -89.20, 81.92, 194.62, -0.048, 0.752, -0.576, 16:16:22.167
93, -231.34, -53.19, 100.66, 99.34, -0.048, 0.752, -0.576, 16:16:22.188
94, -87.13, -36.71, 127.96, -10.75, -0.048, 0.752, -0.576, 16:16:22.189
95, -86.15, -40.37, 115.98, -38.20, -0.048, 0.752, -0.576, 16:16:22.189
96, -259.35, -47.34, 64.71, -28.89, -0.048, 0.752, -0.576, 16:16:22.189
97, -272.62, -21.75, 82.50, -74.93, -0.048, 0.752, -0.576, 16:16:22.210
98, -114.50, -7.02, 125.31, -119.81, -0.048, 0.752, -0.576, 16:16:22.210
99, -112.71, -14.79, 109.03, -90.33, -0.048, 0.752, -0.576, 16:16:22.210
100, -270.08, -13.70, 52.92, -38.46, -0.048, 0.752, -0.576, 16:16:22.211
101, -218.93, 15.53, 74.79, -10.35, -0.048, 0.752, -0.576, 16:16:22.234
102, -39.85, 50.50, 116.54, 12.59, -0.048, 0.752, -0.576, 16:16:22.234
103, -40.65, 37.89, 98.81, 55.18, -0.048, 0.752, -0.576, 16:16:22.234
104, -186.99, 33.45, 55.32, 147.51, -0.048, 0.752, -0.576, 16:16:22.235
107, -202.46, -5.56, 46.48, 221.22, -0.048, 0.752, -0.576, 16:16:22.255
108, -368.87, -33.63, 7.97, 408.12, -0.048, 0.752, -0.576, 16:16:22.255
109, -346.71, -30.34, 21.32, 476.11, -0.048, 0.752, -0.576, 16:16:22.256
110, -205.01, -35.10, 60.91, 452.32, -0.048, 0.752, -0.576, 16:16:22.256
111, -227.48, -46.86, 53.20, 412.97, -0.048, 0.752, -0.576, 16:16:22.277
112, -420.62, -56.24, -2.46, 380.18, -0.048, 0.752, -0.576, 16:16:22.278
113, -389.00, -46.24, 14.59, 351.21, -0.048, 0.752, -0.576, 16:16:22.278
114, -240.91, -37.10, 54.92, 305.87, -0.048, 0.752, -0.576, 16:16:22.278
115, -242.82, -54.61, 44.86, 316.28, -0.048, 0.752, -0.576, 16:16:22.300
116, -402.53, -66.73, -2.38, 362.32, -0.048, 0.752, -0.576, 16:16:22.301
117, -372.49, -35.49, 13.68, 277.14, -0.048, 0.752, -0.576, 16:16:22.301
118, -222.60, -19.53, 52.20, 114.56, -0.048, 0.752, -0.576, 16:16:22.302
119, -240.91, -32.53, 34.33, 34.36, -0.048, 0.752, -0.576, 16:16:22.323
120, -419.27, -27.78, -8.98, 24.47, -0.048, 0.752, -0.576, 16:16:22.323
121, -393.36, 0.77, -4.14, -21.01, -0.048, 0.752, -0.576, 16:16:22.324
122, -211.89, 30.36, 41.02, 69.62, -0.048, 0.752, -0.576, 16:16:22.324
125, -140.66, 90.84, 54.59, 85.96, -0.064, 0.720, -0.704, 16:16:22.345
126, 67.44, 123.94, 101.15, 129.83, -0.064, 0.720, -0.704, 16:16:22.345
127, 55.37, 96.39, 95.01, 115.31, -0.064, 0.720, -0.704, 16:16:22.346
128, -132.72, 65.70, 59.14, 254.42, -0.064, 0.720, -0.704, 16:16:22.346
129, -114.62, 61.01, 82.28, 336.63, -0.064, 0.720, -0.704, 16:16:22.368
130, 21.93, 45.07, 109.79, 328.84, -0.064, 0.720, -0.704, 16:16:22.368
131, 9.68, 26.36, 103.91, 352.79, -0.064, 0.720, -0.704, 16:16:22.368
132, -170.18, 12.73, 62.62, 415.44, -0.064, 0.720, -0.704, 16:16:22.369
133, -152.05, 31.78, 76.09, 395.70, -0.064, 0.720, -0.704, 16:16:22.390
134, -9.33, 46.00, 107.15, 397.95, -0.064, 0.720, -0.704, 16:16:22.390
135, -1.61, 30.32, 104.39, 389.33, -0.064, 0.720, -0.704, 16:16:22.391
136, -173.33, 7.19, 61.39, 431.00, -0.064, 0.720, -0.704, 16:16:22.391
137, -167.84, 28.58, 68.36, 382.67, -0.064, 0.720, -0.704, 16:16:22.412
138, -23.06, 43.86, 103.81, 254.52, -0.064, 0.720, -0.704, 16:16:22.413
139, -38.88, 19.30, 83.30, 208.82, -0.064, 0.720, -0.704, 16:16:22.413
140, -185.65, 8.11, 46.52, 255.80, -0.064, 0.720, -0.704, 16:16:22.413
143, -187.83, -15.52, 37.53, 210.08, -0.064, 0.720, -0.704, 16:16:22.435
144, -356.72, -32.25, -2.25, 284.04, -0.064, 0.720, -0.704, 16:16:22.435
145, -342.29, -15.22, 10.50, 271.02, -0.064, 0.608, -0.816, 16:16:22.435
146, -190.10, -13.68, 31.75, 155.02, -0.064, 0.608, -0.816, 16:16:22.436
147, -194.42, -23.48, 32.61, 169.61, -0.064, 0.608, -0.816, 16:16:22.458
148, -376.25, -45.62, -19.13, 149.66, -0.064, 0.608, -0.816, 16:16:22.458
149, -366.27, -39.58, -4.73, -131.86, -0.064, 0.608, -0.816, 16:16:22.458
150, -248.37, -39.76, 29.88, -185.23, -0.064, 0.608, -0.816, 16:16:22.459
151, -304.54, -54.31, 15.21, -249.74, -0.064, 0.608, -0.816, 16:16:22.480
152, -482.48, -59.87, -23.34, -576.11, -0.064, 0.608, -0.816, 16:16:22.480
153, -446.55, -31.05, -6.97, -445.60, -0.064, 0.608, -0.816, 16:16:22.480
154, -276.54, -29.93, 26.51, -438.93, -0.064, 0.608, -0.816, 16:16:22.481
155, -263.03, -34.38, 18.30, -356.77, -0.064, 0.608, -0.816, 16:16:22.503
156, -422.38, -37.24, -15.05, -177.35, -0.064, 0.608, -0.816, 16:16:22.503
157, -423.98, -32.99, -14.53, -87.01, -0.064, 0.608, -0.816, 16:16:22.503
158, -278.40, -29.44, 24.37, -11.58, -0.064, 0.608, -0.816, 16:16:22.503
161, -260.30, -12.48, 30.65, 70.58, -0.064, 0.608, -0.816, 16:16:22.525
162, -98.19, -9.46, 65.27, 115.94, -0.064, 0.608, -0.816, 16:16:22.525
163, -93.37, -21.97, 64.16, 190.26, -0.064, 0.608, -0.816, 16:16:22.525
164, -241.40, -18.62, 25.24, 335.36, -0.064, 0.608, -0.816, 16:16:22.525
165, -218.32, 8.19, 38.37, 398.92, -0.048, 0.512, -0.896, 16:16:22.548
166, -68.65, 0.40, 46.86, 351.52, -0.048, 0.512, -0.896, 16:16:22.548
167, -47.64, -5.65, 50.46, 354.68, -0.048, 0.512, -0.896, 16:16:22.548
168, -189.85, 3.48, 10.10, 386.57, -0.048, 0.512, -0.896, 16:16:22.548
169, -155.03, 30.46, 19.99, 387.07, -0.048, 0.512, -0.896, 16:16:22.570
170, -6.23, 47.47, 49.03, 312.62, -0.048, 0.512, -0.896, 16:16:22.570
171, 1.20, 35.47, 52.83, 204.69, -0.048, 0.512, -0.896, 16:16:22.571
172, -168.77, 45.73, 10.37, 221.99, -0.048, 0.512, -0.896, 16:16:22.571
173, -177.41, 59.23, 16.13, 83.37, -0.048, 0.512, -0.896, 16:16:22.593
174, -48.34, 41.76, 49.92, 58.38, -0.048, 0.512, -0.896, 16:16:22.593
175, -59.69, 6.89, 42.69, 78.81, -0.048, 0.512, -0.896, 16:16:22.593
176, -211.08, -1.13, 9.37, 157.76, -0.048, 0.512, -0.896, 16:16:22.594
179, -410.05, 30.53, 20.42, 182.47, -0.048, 0.512, -0.896, 16:16:22.615
180, -584.34, 61.20, 1.45, 288.83, -0.048, 0.512, -0.896, 16:16:22.616
181, -532.62, 88.06, 16.72, 349.89, -0.048, 0.512, -0.896, 16:16:22.616
182, -312.30, 105.84, 50.17, 330.81, -0.048, 0.512, -0.896, 16:16:22.616
183, -250.88, 114.11, 49.86, 345.05, -0.048, 0.512, -0.896, 16:16:22.638
184, -372.03, 120.87, -1.73, 393.31, -0.048, 0.512, -0.896, 16:16:22.638
185, -325.32, 151.36, 14.48, 401.04, -0.016, 0.480, -0.912, 16:16:22.638
186, -153.56, 153.28, 46.06, 348.30, -0.016, 0.480, -0.912, 16:16:22.639
187, -109.58, 134.61, 38.39, 282.98, -0.016, 0.480, -0.912, 16:16:22.660
188, -270.96, 137.04, -4.54, 180.09, -0.016, 0.480, -0.912, 16:16:22.661
189, -258.61, 126.29, -2.43, 96.77, -0.016, 0.480, -0.912, 16:16:22.661
190, -124.51, 98.44, 35.63, -34.72, -0.016, 0.480, -0.912, 16:16:22.661
191, -134.83, 56.20, 32.48, -121.87, -0.016, 0.480, -0.912, 16:16:22.682
192, -274.02, 45.43, 4.89, -85.14, -0.016, 0.480, -0.912, 16:16:22.682
193, -318.23, 33.20, 3.12, -18.17, -0.016, 0.480, -0.912, 16:16:22.683
194, -233.59, 19.06, 35.22, -20.26, -0.016, 0.480, -0.912, 16:16:22.683
197, -235.62, 32.55, 36.57, 68.85, -0.016, 0.480, -0.912, 16:16:22.705
198, -104.48, 22.01, 61.84, 77.02, -0.016, 0.480, -0.912, 16:16:22.705
199, -111.90, -2.70, 48.80, 108.25, -0.016, 0.480, -0.912, 16:16:22.705
200, -249.60, 4.28, 7.99, 178.16, -0.016, 0.480, -0.912, 16:16:22.706
0, -179.61, 43.66, -7.09, 195.90, -0.016, 0.480, -0.912, 16:16:22.728
1, -83.85, 21.38, 3.97, 141.32, -0.016, 0.480, -0.912, 16:16:22.728
2, -70.71, 4.13, 6.31, 141.49, -0.016, 0.480, -0.912, 16:16:22.728
5, 60.24, -12.30, 33.76, 89.77, -0.048, 0.480, -0.960, 16:16:22.751
6, 69.05, -26.22, 40.78, 97.94, -0.048, 0.480, -0.960, 16:16:22.751
7, -71.08, -28.33, 6.31, 163.98, -0.048, 0.480, -0.960, 16:16:22.751
8, -90.89, -5.46, 11.22, 191.54, -0.048, 0.480, -0.960, 16:16:22.752
9, 33.44, -6.25, 55.51, 187.29, -0.048, 0.480, -0.960, 16:16:22.772
10, 44.67, -31.51, 44.48, 191.07, -0.048, 0.480, -0.960, 16:16:22.775
11, -73.56, -16.01, 14.63, 270.51, -0.048, 0.480, -0.960, 16:16:22.775
12, -82.77, -9.85, 20.90, 246.65, -0.048, 0.480, -0.960, 16:16:22.775
13, 11.50, -20.48, 55.44, 122.24, -0.048, 0.480, -0.960, 16:16:22.795
14, 10.66, -49.87, 57.96, 81.81, -0.048, 0.480, -0.960, 16:16:22.795
15, -181.20, -39.39, 28.00, 143.73, -0.048, 0.480, -0.960, 16:16:22.795
16, -280.57, -6.50, 29.22, 139.86, -0.048, 0.480, -0.960, 16:16:22.796
17, -156.34, -13.81, 61.43, 60.17, -0.048, 0.480, -0.960, 16:16:22.818
18, -162.18, -41.52, 67.68, 49.84, -0.048, 0.480, -0.960, 16:16:22.818
19, -389.87, -32.65, 34.38, 76.65, -0.048, 0.480, -0.960, 16:16:22.818
20, -416.36, 6.83, 45.15, 72.01, -0.048, 0.480, -0.960, 16:16:22.818
23, -634.22, 15.07, 0.74, 12.15, -0.048, 0.480, -0.960, 16:16:22.841
24, -670.63, 32.32, 9.60, -142.94, -0.048, 0.480, -0.960, 16:16:22.841
25, -514.31, 21.59, 37.14, -285.39, -0.048, 0.320, -0.976, 16:16:22.841
26, -472.13, 8.37, 35.86, -336.38, -0.048, 0.320, -0.976, 16:16:22.841
27, -602.47, 36.22, -3.57, -342.76, -0.048, 0.320, -0.976, 16:16:22.863
28, -593.84, 49.41, -4.53, -382.81, -0.048, 0.320, -0.976, 16:16:22.863
29, -411.16, 50.14, 34.18, -400.21, -0.048, 0.320, -0.976, 16:16:22.863
30, -350.72, 57.98, 32.66, -447.51, -0.048, 0.320, -0.976, 16:16:22.863
31, -455.47, 76.31, -5.48, -433.20, -0.048, 0.320, -0.976, 16:16:22.885
32, -413.35, 89.25, 0.72, -416.94, -0.048, 0.320, -0.976, 16:16:22.885
33, -242.54, 97.16, 32.80, -540.93, -0.048, 0.320, -0.976, 16:16:22.886
34, -199.85, 95.50, 30.95, -664.69, -0.048, 0.320, -0.976, 16:16:22.886
35, -313.90, 114.73, 3.32, -683.89, -0.048, 0.320, -0.976, 16:16:22.908
36, -292.54, 153.52, 14.91, -729.56, -0.048, 0.320, -0.976, 16:16:22.908
37, -131.36, 152.47, 50.84, -742.15, -0.048, 0.320, -0.976, 16:16:22.908
38, -66.76, 153.53, 71.89, -726.44, -0.048, 0.320, -0.976, 16:16:22.908
41, 70.98, 119.71, 118.09, -660.06, -0.048, 0.320, -0.976, 16:16:22.930
42, 74.92, 82.69, 118.98, -601.03, -0.048, 0.320, -0.976, 16:16:22.930
43, -92.86, 84.05, 88.88, -532.74, -0.048, 0.320, -0.976, 16:16:22.931
44, -104.18, 94.09, 87.03, -468.60, -0.048, 0.320, -0.976, 16:16:22.931
45, 49.24, 95.53, 95.27, -411.73, 0.000, 0.320, -1.024, 16:16:22.953
46, 57.99, 64.75, 69.76, -372.02, 0.000, 0.320, -1.024, 16:16:22.953
47, -86.48, 80.25, 33.88, -302.60, 0.000, 0.320, -1.024, 16:16:22.954
48, -84.11, 93.62, 36.10, -215.76, 0.000, 0.320, -1.024, 16:16:22.954
49, 59.35, 92.26, 57.36, -203.89, 0.000, 0.320, -1.024, 16:16:22.975
50, 92.70, 90.11, 67.23, -201.01, 0.000, 0.320, -1.024, 16:16:22.975
51, -47.35, 135.64, 44.92, -212.08, 0.000, 0.320, -1.024, 16:16:22.976
52, -26.97, 211.19, 39.44, -238.54, 0.000, 0.320, -1.024, 16:16:22.976
53, 133.04, 244.14, 80.41, -276.55, 0.000, 0.320, -1.024, 16:16:22.998
54, 181.98, 226.04, 85.92, -263.80, 0.000, 0.320, -1.024, 16:16:22.999
55, -1.56, 217.14, 49.93, -259.48, 0.000, 0.320, -1.024, 16:16:22.999
56, -25.37, 213.86, 51.91, -234.68, 0.000, 0.320, -1.024, 16:16:22.999
59, -245.84, 198.17, 17.87, -229.46, 0.000, 0.320, -1.024, 16:16:23.020
60, -260.55, 202.00, 18.82, -209.99, 0.000, 0.320, -1.024, 16:16:23.021
61, -95.60, 180.67, 35.95, -189.46, 0.000, 0.320, -1.024, 16:16:23.021
62, -76.02, 174.45, 40.36, -184.90, 0.000, 0.320, -1.024, 16:16:23.022
63, -228.94, 257.17, 23.45, -172.56, 0.000, 0.320, -1.024, 16:16:23.043
64, -257.05, 283.71, 20.44, -177.80, 0.000, 0.320, -1.024, 16:16:23.043
65, -112.12, 263.40, 51.86, -154.08, -0.016, 0.320, -1.024, 16:16:23.044
66, -87.23, 228.19, 44.24, -147.22, -0.016, 0.320, -1.024, 16:16:23.044
67, -241.58, 236.09, 23.97, -144.32, -0.016, 0.320, -1.024, 16:16:23.066
68, -283.21, 241.45, 28.84, -140.38, -0.016, 0.320, -1.024, 16:16:23.066
69, -146.64, 217.48, 63.36, -133.30, -0.016, 0.320, -1.024, 16:16:23.066
70, -124.56, 187.49, 66.64, -117.63, -0.016, 0.320, -1.024, 16:16:23.066
71, -286.38, 221.79, 41.47, -124.02, -0.016, 0.320, -1.024, 16:16:23.087
72, -296.45, 252.21, 47.08, -117.48, -0.016, 0.320, -1.024, 16:16:23.088
73, -148.38, 311.92, 61.52, -116.25, -0.016, 0.320, -1.024, 16:16:23.110
74, -120.31, 281.15, 56.85, -111.27, -0.016, 0.320, -1.024, 16:16:23.110
77, 37.48, 244.31, 71.90, -104.92, -0.016, 0.320, -1.024, 16:16:23.110
78, 78.89, 205.96, 66.54, -101.10, -0.016, 0.320, -1.024, 16:16:23.110
79, -59.48, 214.55, 34.49, -103.87, -0.016, 0.320, -1.024, 16:16:23.133
80, -66.79, 216.86, 26.24, -104.87, -0.016, 0.320, -1.024, 16:16:23.133
81, 91.78, 174.12, 57.90, -94.73, -0.016, 0.320, -1.024, 16:16:23.134
82, 124.78, 129.27, 51.03, -98.33, -0.016, 0.320, -1.024, 16:16:23.134
83, -32.97, 141.04, 28.82, -102.46, -0.016, 0.320, -1.024, 16:16:23.155
84, -53.26, 165.45, 50.22, -100.72, -0.016, 0.320, -1.024, 16:16:23.156
85, 45.35, 134.20, 89.19, -89.09, 0.000, 0.304, -1.024, 16:16:23.156
86, 19.64, 103.92, 100.17, -90.40, 0.000, 0.304, -1.024, 16:16:23.156
89, 165.36, 69.10, 118.77, -89.59, 0.000, 0.304, -1.024, 16:16:23.178
90, 204.16, 36.74, 122.93, -80.19, 0.000, 0.304, -1.024, 16:16:23.178
91, 29.67, 42.29, 76.79, -99.58, 0.000, 0.304, -1.024, 16:16:23.178
92, -1.01, 66.04, 79.26, -94.31, 0.000, 0.304, -1.024, 16:16:23.178
95, -135.09, 106.33, 50.21, -97.78, 0.000, 0.304, -1.024, 16:16:23.200
96, -118.88, 156.63, 47.47, -96.67, 0.000, 0.304, -1.024, 16:16:23.200
97, 18.30, 125.32, 72.31, -92.46, 0.000, 0.304, -1.024, 16:16:23.201
98, 75.60, 89.99, 70.12, -92.11, 0.000, 0.304, -1.024, 16:16:23.201
99, -67.85, 109.97, 43.10, -91.56, 0.000, 0.304, -1.024, 16:16:23.223
100, -98.87, 128.30, 30.03, -96.53, 0.000, 0.304, -1.024, 16:16:23.223
101, 56.93, 93.59, 53.70, -91.14, 0.000, 0.304, -1.024, 16:16:23.223
102, 100.71, 58.42, 50.20, -88.00, 0.000, 0.304, -1.024, 16:16:23.223
103, -45.67, 71.71, 25.67, -91.33, 0.000, 0.304, -1.024, 16:16:23.245
104, -66.00, 80.44, 23.41, -97.76, 0.000, 0.304, -1.024, 16:16:23.245
105, 91.22, 55.72, 43.86, -88.16, -0.016, 0.272, -1.072, 16:16:23.246
106, 159.15, 44.79, 48.24, -88.96, -0.016, 0.272, -1.072, 16:16:23.246
107, 5.49, 82.33, 16.52, -96.13, -0.016, 0.272, -1.072, 16:16:23.267
108, 1.70, 124.53, 25.21, -89.69, -0.016, 0.272, -1.072, 16:16:23.268
109, 162.12, 97.93, 44.94, -90.95, -0.016, 0.272, -1.072, 16:16:23.290
110, 201.66, 101.62, 55.81, -84.68, -0.016, 0.272, -1.072, 16:16:23.290
113, 330.68, 65.87, 135.09, -79.20, -0.016, 0.272, -1.072, 16:16:23.291
114, 447.45, 55.69, 210.80, -72.80, -0.016, 0.272, -1.072, 16:16:23.291
115, 318.89, 78.02, 329.12, -80.65, -0.016, 0.272, -1.072, 16:16:23.312
116, 288.45, 91.15, 468.93, -81.57, -0.016, 0.272, -1.072, 16:16:23.313
117, 457.62, 57.17, 499.21, -68.75, -0.016, 0.272, -1.072, 16:16:23.313
118, 489.97, 18.55, 450.14, -82.05, -0.016, 0.272, -1.072, 16:16:23.313
119, 372.41, 29.41, 368.82, -82.60, -0.016, 0.272, -1.072, 16:16:23.335
120, 362.18, 68.70, 331.40, -80.25, -0.016, 0.272, -1.072, 16:16:23.335
121, 491.42, 48.10, 296.65, -79.11, -0.016, 0.272, -1.072, 16:16:23.335
122, 520.22, 27.77, 257.84, -76.34, -0.016, 0.272, -1.072, 16:16:23.336
125, 681.17, 0.20, 302.71, -68.80, 0.032, 0.272, -0.960, 16:16:23.357
126, 739.10, -5.06, 350.68, -64.17, 0.032, 0.272, -0.960, 16:16:23.358
127, 558.84, 26.64, 358.95, -77.22, 0.032, 0.272, -0.960, 16:16:23.358
128, 514.24, 51.26, 369.75, -72.89, 0.032, 0.272, -0.960, 16:16:23.358
131, 377.35, 73.37, 384.66, -76.85, 0.032, 0.272, -0.960, 16:16:23.380
132, 347.13, 108.72, 428.79, -79.15, 0.032, 0.272, -0.960, 16:16:23.382
133, 501.58, 79.43, 443.52, -77.25, 0.032, 0.272, -0.960, 16:16:23.392
134, 584.17, 61.72, 520.40, -73.58, 0.032, 0.272, -0.960, 16:16:23.393
135, 491.63, 99.66, 570.99, -69.30, 0.032, 0.272, -0.960, 16:16:23.405
136, 511.74, 82.60, 631.55, -84.01, 0.032, 0.272, -0.960, 16:16:23.405
137, 654.13, 32.39, 721.44, -79.12, 0.032, 0.272, -0.960, 16:16:23.405
138, 708.86, -2.16, 715.49, -73.91, 0.032, 0.272, -0.960, 16:16:23.405
139, 510.47, 23.68, 686.54, -78.43, 0.032, 0.272, -0.960, 16:16:23.427
140, 438.85, 48.13, 573.09, -80.85, 0.032, 0.272, -0.960, 16:16:23.428
141, 537.92, 17.60, 450.01, -74.85, 0.032, 0.272, -0.960, 16:16:23.428
142, 560.26, -9.17, 381.36, -70.56, 0.032, 0.272, -0.960, 16:16:23.428
143, 405.19, 22.53, 329.76, -74.96, 0.032, 0.272, -0.960, 16:16:23.448
144, 378.11, 51.42, 292.22, -77.32, 0.032, 0.272, -0.960, 16:16:23.449
145, 496.35, 19.36, 258.07, -76.66, 0.000, 0.208, -1.072, 16:16:23.449
146, 547.62, 4.99, 242.83, -74.89, 0.000, 0.208, -1.072, 16:16:23.450
149, 714.23, -13.39, 256.08, -72.84, 0.000, 0.208, -1.072, 16:16:23.470
150, 834.99, -24.59, 304.40, -71.27, 0.000, 0.208, -1.072, 16:16:23.471
151, 710.49, 13.91, 356.31, -74.55, 0.000, 0.208, -1.072, 16:16:23.471
152, 667.85, 41.35, 378.95, -78.12, 0.000, 0.208, -1.072, 16:16:23.471
153, 794.39, 14.04, 371.47, -66.48, 0.000, 0.208, -1.072, 16:16:23.493
154, 812.93, -21.99, 322.77, -76.77, 0.000, 0.208, -1.072, 16:16:23.493
155, 613.23, 8.23, 281.47, -75.96, 0.000, 0.208, -1.072, 16:16:23.493
156, 560.03, 27.15, 242.14, -76.11, 0.000, 0.208, -1.072, 16:16:23.494
157, 674.83, -1.81, 209.72, -72.81, 0.000, 0.208, -1.072, 16:16:23.515
158, 698.76, -16.17, 171.00, -70.84, 0.000, 0.208, -1.072, 16:16:23.516
159, 542.63, 17.20, 154.01, -76.84, 0.000, 0.208, -1.072, 16:16:23.516
160, 502.45, 34.19, 104.88, -80.02, 0.000, 0.208, -1.072, 16:16:23.516
161, 618.97, 0.36, 72.63, -75.89, 0.000, 0.208, -1.072, 16:16:23.538
162, 658.35, -24.26, 41.04, -64.47, 0.000, 0.208, -1.072, 16:16:23.538
163, 457.09, 6.35, 78.84, -76.49, 0.000, 0.208, -1.072, 16:16:23.538
164, 419.72, 48.29, 235.41, -77.84, 0.000, 0.208, -1.072, 16:16:23.538
167, 261.33, 57.92, 167.14, -83.67, 0.000, 0.208, -1.072, 16:16:23.560
168, 192.58, 63.49, 109.95, -80.34, 0.000, 0.208, -1.072, 16:16:23.560
169, 343.65, 21.28, 66.44, -76.44, 0.000, 0.208, -1.072, 16:16:23.560
170, 365.37, 8.78, 85.39, -76.02, 0.000, 0.208, -1.072, 16:16:23.561
171, 240.67, 53.66, 220.87, -74.53, 0.000, 0.208, -1.072, 16:16:23.605
172, 197.12, 83.03, 367.47, -84.09, 0.000, 0.208, -1.072, 16:16:23.605
173, 330.37, 72.31, 384.99, -78.28, 0.000, 0.208, -1.072, 16:16:23.606
174, 395.77, 48.71, 367.08, -76.68, 0.000, 0.208, -1.072, 16:16:23.606
175, 207.07, 78.88, 386.96, -84.96, 0.000, 0.208, -1.072, 16:16:23.628
176, 140.89, 80.83, 301.85, -83.67, 0.000, 0.208, -1.072, 16:16:23.628
177, 224.97, -0.42, 122.49, -78.46, 0.000, 0.208, -1.072, 16:16:23.628
178, 168.47, 195.65, -280.77, -76.91, 0.000, 0.208, -1.072, 16:16:23.628
179, 47.31, 599.13, -630.52, -82.89, 0.000, 0.208, -1.072, 16:16:23.650
180, -20.50, 719.15, -793.44, -81.26, 0.000, 0.208, -1.072, 16:16:23.651
181, 255.04, 733.33, -569.81, -87.14, 0.000, 0.208, -1.072, 16:16:23.651
182, 506.58, 792.17, -309.80, -75.96, 0.000, 0.208, -1.072, 16:16:23.651
183, 455.23, 873.34, 47.91, -82.59, 0.000, 0.208, -1.072, 16:16:23.673
184, 468.90, 908.83, 451.30, -84.81, 0.000, 0.208, -1.072, 16:16:23.673
189, 584.14, 883.16, 685.84, -74.84, 0.000, 0.208, -1.072, 16:16:23.673
190, 650.83, 862.08, 1066.26, -84.89, 0.000, 0.208, -1.072, 16:16:23.673
193, 765.69, 676.04, 1364.97, -75.65, 0.000, 0.208, -1.072, 16:16:23.695
194, 1007.87, 627.37, 1404.28, -76.73, 0.000, 0.208, -1.072, 16:16:23.695
195, 883.74, 837.79, 1650.20, -82.03, 0.000, 0.208, -1.072, 16:16:23.696
196, 792.53, 984.89, 1237.24, -80.56, 0.000, 0.208, -1.072, 16:16:23.696
197, 971.82, 975.83, 1229.89, -74.73, 0.000, 0.208, -1.072, 16:16:23.717
198, 1014.90, 986.59, 898.14, -66.17, 0.000, 0.208, -1.072, 16:16:23.718
199, 932.45, 1165.40, 420.38, -83.52, 0.000, 0.208, -1.072, 16:16:23.718
200, 898.93, 1254.88, 754.86, -79.13, 0.000, 0.208, -1.072, 16:16:23.718
1, 1077.93, 1149.59, 920.40, -74.61, 0.000, 0.208, -1.072, 16:16:23.740
2, 1016.91, 1165.39, 933.74, -82.80, 0.000, 0.208, -1.072, 16:16:23.741
3, 954.94, 1112.84, 912.75, -82.82, 0.000, 0.208, -1.072, 16:16:23.741
4, 1079.97, 973.72, 697.96, -74.90, 0.000, 0.208, -1.072, 16:16:23.741
5, 1173.75, 883.00, 1054.69, -73.30, -0.032, 0.192, -1.024, 16:16:23.762
6, 953.71, 918.96, 1081.72, -77.03, -0.032, 0.192, -1.024, 16:16:23.763
7, 828.21, 794.57, 1200.02, -89.86, -0.032, 0.192, -1.024, 16:16:23.763
8, 983.87, 665.92, 849.47, -76.37, -0.032, 0.192, -1.024, 16:16:23.763
11, 875.91, 736.41, 623.49, -78.51, -0.032, 0.192, -1.024, 16:16:23.785
12, 950.72, 676.15, 574.64, -71.36, -0.032, 0.192, -1.024, 16:16:23.786
13, 1015.42, 634.75, 197.05, -68.30, -0.032, 0.192, -1.024, 16:16:23.787
14, 886.53, 681.57, 285.71, -72.90, -0.032, 0.192, -1.024, 16:16:23.787
15, 910.72, 741.08, 630.41, -74.32, -0.032, 0.192, -1.024, 16:16:23.808
16, 984.18, 912.23, 587.97, -71.53, -0.032, 0.192, -1.024, 16:16:23.808
17, 1013.93, 1088.66, 101.66, -65.92, -0.032, 0.192, -1.024, 16:16:23.809
18, 868.59, 1143.01, -292.22, -74.05, -0.032, 0.192, -1.024, 16:16:23.809
19, 705.03, 1125.14, -235.25, -75.49, -0.032, 0.192, -1.024, 16:16:23.830
20, 888.59, 1174.71, -162.25, -72.44, -0.032, 0.192, -1.024, 16:16:23.830
21, 1059.38, 1288.43, 13.69, -65.16, -0.032, 0.192, -1.024, 16:16:23.831
22, 873.50, 1311.39, 369.49, -75.43, -0.032, 0.192, -1.024, 16:16:23.831
23, 664.10, 861.36, 429.56, -75.53, -0.032, 0.192, -1.024, 16:16:23.853
24, 658.85, 516.07, 521.81, -64.23, -0.032, 0.192, -1.024, 16:16:23.853
25, 745.20, 217.56, 629.47, -76.07, 0.016, 0.160, -1.072, 16:16:23.853
26, 593.79, 478.75, 961.75, -76.56, 0.016, 0.160, -1.072, 16:16:23.854
29, 607.58, 350.56, 1280.14, -73.95, 0.016, 0.160, -1.072, 16:16:23.876
30, 413.03, 532.35, 1559.68, -76.71, 0.016, 0.160, -1.072, 16:16:23.876
31, 394.25, 538.07, 1667.61, -82.81, 0.016, 0.160, -1.072, 16:16:23.876
32, 588.74, 202.83, 2063.36, -73.17, 0.016, 0.160, -1.072, 16:16:23.876
33, 689.34, -145.85, 2134.71, -74.64, 0.016, 0.160, -1.072, 16:16:23.898
34, 559.09, -240.88, 2384.17, -88.04, 0.016, 0.160, -1.072, 16:16:23.898
35, 523.20, -420.71, 2449.22, -86.66, 0.016, 0.160, -1.072, 16:16:23.898
36, 692.84, -767.45, 2625.17, -78.45, 0.016, 0.160, -1.072, 16:16:23.898
37, 738.03, -882.19, 2522.92, -77.11, 0.016, 0.160, -1.072, 16:16:23.920
38, 579.41, -730.63, 2508.31, -84.78, 0.016, 0.160, -1.072, 16:16:23.920
39, 499.88, -661.49, 2432.46, -82.36, 0.016, 0.160, -1.072, 16:16:23.921
40, 694.53, -841.14, 2345.63, -79.46, 0.016, 0.160, -1.072, 16:16:23.921
41, 801.89, -915.08, 2042.40, -74.38, 0.016, 0.160, -1.072, 16:16:23.942
42, 680.81, -644.51, 2282.44, -70.85, 0.016, 0.160, -1.072, 16:16:23.942
43, 610.29, -333.96, 2434.03, -87.83, 0.016, 0.160, -1.072, 16:16:23.943
44, 754.95, -411.83, 2050.40, -72.32, 0.016, 0.160, -1.072, 16:16:23.943
47, 675.12, -489.18, 2349.52, -72.74, 0.016, 0.160, -1.072, 16:16:23.967
48, 780.07, -866.18, 2301.98, -64.78, 0.016, 0.160, -1.072, 16:16:23.968
49, 861.67, -1164.08, 2245.04, -59.99, 0.016, 0.160, -1.072, 16:16:23.968
50, 740.46, -1060.85, 2432.82, -67.86, 0.016, 0.160, -1.072, 16:16:23.968
51, 669.49, -967.37, 2661.81, -68.21, 0.016, 0.160, -1.072, 16:16:23.988
52, 741.86, -1259.67, 2475.36, -70.36, 0.016, 0.160, -1.072, 16:16:23.988
53, 742.58, -1558.09, 2523.24, -62.46, 0.016, 0.160, -1.072, 16:16:23.988
54, 543.73, -1084.69, 2592.65, -62.98, 0.016, 0.160, -1.072, 16:16:23.989
55, 396.73, -853.76, 2367.32, -71.20, 0.016, 0.160, -1.072, 16:16:24.010
56, 484.85, -766.62, 2295.76, -66.15, 0.016, 0.160, -1.072, 16:16:24.010
57, 490.33, -841.69, 2255.38, -69.03, 0.016, 0.160, -1.072, 16:16:24.011
58, 228.04, -821.26, 2608.80, -72.22, 0.016, 0.160, -1.072, 16:16:24.011
59, 22.38, -798.55, 2964.55, -72.28, 0.016, 0.160, -1.072, 16:16:24.033
60, -109.56, -682.11, 3047.61, -61.68, 0.016, 0.160, -1.072, 16:16:24.033
61, -200.31, -464.49, 3351.85, -64.06, 0.016, 0.160, -1.072, 16:16:24.033
62, -451.15, -180.65, 3410.09, -67.61, 0.016, 0.160, -1.072, 16:16:24.034
65, -329.66, -238.17, 3318.97, -65.87, -0.048, 0.112, -1.008, 16:16:24.055
66, -697.05, -174.00, 3398.57, -73.01, -0.048, 0.112, -1.008, 16:16:24.055
67, -975.14, -408.16, 3328.97, -77.08, -0.048, 0.112, -1.008, 16:16:24.056
68, -801.74, -432.09, 3595.54, -68.28, -0.048, 0.112, -1.008, 16:16:24.056
69, -538.77, -236.92, 4041.45, -62.12, -0.048, 0.112, -1.008, 16:16:24.078
70, -572.22, 221.54, 4018.80, -77.60, -0.048, 0.112, -1.008, 16:16:24.078
71, -531.09, 70.79, 4389.69, -74.82, -0.048, 0.112, -1.008, 16:16:24.078
72, -273.44, 7.33, 4711.85, -69.18, -0.048, 0.112, -1.008, 16:16:24.078
73, -128.59, -206.46, 4830.08, -65.94, -0.048, 0.112, -1.008, 16:16:24.100
74, -205.75, -291.98, 4968.79, -73.47, -0.048, 0.112, -1.008, 16:16:24.101
75, -365.90, -140.56, 4932.91, -72.67, -0.048, 0.112, -1.008, 16:16:24.101
76, -187.38, -555.73, 4873.62, -67.68, -0.048, 0.112, -1.008, 16:16:24.101
77, -57.43, -1028.13, 4418.43, -63.92, -0.048, 0.112, -1.008, 16:16:24.122
78, -233.88, -1104.55, 4266.76, -69.94, -0.048, 0.112, -1.008, 16:16:24.123
79, -272.98, -1307.87, 4122.43, -81.40, -0.048, 0.112, -1.008, 16:16:24.123
80, -47.44, -1350.50, 3881.91, -71.24, -0.048, 0.112, -1.008, 16:16:24.123
83, -174.48, -1016.70, 3435.18, -80.62, -0.048, 0.112, -1.008, 16:16:24.145
84, -57.60, -822.82, 3298.87, -72.73, -0.048, 0.112, -1.008, 16:16:24.145
85, 66.00, -840.12, 3590.98, -72.04, -0.048, 0.064, -1.056, 16:16:24.145
86, -110.00, -616.38, 3716.56, -78.00, -0.048, 0.064, -1.056, 16:16:24.146
87, -151.71, -276.18, 3624.36, -70.24, -0.048, 0.064, -1.056, 16:16:24.168
88, 106.73, -613.47, 3620.85, -75.15, -0.048, 0.064, -1.056, 16:16:24.168
89, 266.49, -939.98, 3226.52, -66.50, -0.048, 0.064, -1.056, 16:16:24.168
90, 41.71, -1225.04, 3182.40, -82.69, -0.048, 0.064, -1.056, 16:16:24.169
91, -85.08, -1417.17, 3559.60, -77.54, -0.048, 0.064, -1.056, 16:16:24.190
92, 78.35, -1489.40, 3665.71, -74.59, -0.048, 0.064, -1.056, 16:16:24.190
93, 245.32, -1244.92, 4128.64, -73.39, -0.048, 0.064, -1.056, 16:16:24.190
94, 133.67, -880.14, 4192.81, -78.79, -0.048, 0.064, -1.056, 16:16:24.191
95, 146.38, -629.24, 4335.35, -76.08, -0.048, 0.064, -1.056, 16:16:24.212
96, 415.34, -438.63, 4368.45, -64.55, -0.048, 0.064, -1.056, 16:16:24.213
97, 669.07, -109.31, 4402.37, -68.03, -0.048, 0.064, -1.056, 16:16:24.213
98, 489.88, 288.57, 4726.01, -70.94, -0.048, 0.064, -1.056, 16:16:24.213
101, 805.73, 602.20, 4398.93, -63.29, -0.048, 0.064, -1.056, 16:16:24.235
102, 700.19, 1007.70, 4163.12, -75.24, -0.048, 0.064, -1.056, 16:16:24.236
103, 586.09, 1121.03, 4262.17, -73.73, -0.048, 0.064, -1.056, 16:16:24.236
104, 844.62, 870.53, 3819.90, -67.52, -0.048, 0.064, -1.056, 16:16:24.237
105, 982.04, 491.38, 3472.12, -54.67, -0.048, 0.032, -1.040, 16:16:24.257
106, 821.46, 144.83, 3803.84, -77.45, -0.048, 0.032, -1.040, 16:16:24.258
107, 739.53, 4.85, 3453.69, -69.05, -0.048, 0.032, -1.040, 16:16:24.258
108, 817.23, -4.74, 3352.21, -62.44, -0.048, 0.032, -1.040, 16:16:24.258
109, 880.48, 166.63, 3342.28, -63.05, -0.048, 0.032, -1.040, 16:16:24.280
110, 670.17, 638.08, 3134.36, -73.54, -0.048, 0.032, -1.040, 16:16:24.280
111, 534.87, 687.80, 2652.96, -67.20, -0.048, 0.032, -1.040, 16:16:24.281
112, 786.30, 727.05, 2518.59, -68.07, -0.048, 0.032, -1.040, 16:16:24.281
113, 919.51, 724.94, 2746.50, -66.44, -0.048, 0.032, -1.040, 16:16:24.303
114, 721.80, 744.23, 3232.03, -66.57, -0.048, 0.032, -1.040, 16:16:24.303
115, 584.76, 938.42, 3259.67, -72.60, -0.048, 0.032, -1.040, 16:16:24.303
116, 751.29, 809.57, 3239.91, -65.99, -0.048, 0.032, -1.040, 16:16:24.303
119, 671.61, 1011.82, 3025.94, -74.85, -0.048, 0.032, -1.040, 16:16:24.326
120, 882.35, 922.71, 3024.65, -62.98, -0.048, 0.032, -1.040, 16:16:24.326
121, 993.72, 815.08, 2995.38, -61.79, -0.048, 0.032, -1.040, 16:16:24.326
122, 788.32, 891.06, 3031.65, -66.89, -0.048, 0.032, -1.040, 16:16:24.326
123, 677.59, 1044.25, 3057.20, -68.01, -0.048, 0.032, -1.040, 16:16:24.347
124, 821.40, 985.67, 3233.96, -64.30, -0.048, 0.032, -1.040, 16:16:24.348
125, 886.21, 976.96, 3451.39, -60.20, -0.016, 0.016, -1.056, 16:16:24.348
126, 418.14, 941.84, 3693.49, -66.70, -0.016, 0.016, -1.056, 16:16:24.348
127, 246.10, 1005.56, 3872.15, -65.69, -0.016, 0.016, -1.056, 16:16:24.370
128, 438.15, 883.16, 3693.96, -60.06, -0.016, 0.016, -1.056, 16:16:24.370
129, 545.26, 750.76, 3765.46, -59.17, -0.016, 0.016, -1.056, 16:16:24.370
130, 357.93, 785.96, 4037.11, -66.53, -0.016, 0.016, -1.056, 16:16:24.371
131, 214.61, 803.51, 4312.74, -68.11, -0.016, 0.016, -1.056, 16:16:24.392
132, 429.09, 619.23, 4302.08, -58.93, -0.016, 0.016, -1.056, 16:16:24.392
133, 561.40, 383.30, 4353.94, -62.22, -0.016, 0.016, -1.056, 16:16:24.393
134, 390.71, 435.03, 4515.29, -65.06, -0.016, 0.016, -1.056, 16:16:24.393
137, 548.52, 365.33, 4490.87, -71.27, -0.016, 0.016, -1.056, 16:16:24.415
138, 411.53, 483.08, 4593.33, -67.26, -0.016, 0.016, -1.056, 16:16:24.415
139, 323.32, 698.11, 4721.39, -75.90, -0.016, 0.016, -1.056, 16:16:24.416
140, 539.44, 478.96, 4459.53, -66.49, -0.016, 0.016, -1.056, 16:16:24.416
141, 654.60, 389.34, 4221.19, -59.16, -0.016, 0.016, -1.056, 16:16:24.438
142, 481.92, 626.29, 4321.18, -77.01, -0.016, 0.016, -1.056, 16:16:24.438
143, 404.18, 1086.71, 4527.11, -75.95, -0.016, 0.016, -1.056, 16:16:24.438
144, 561.58, 1368.85, 4616.76, -70.12, -0.016, 0.016, -1.056, 16:16:24.438
145, 805.35, 1384.26, 4633.08, -67.33, -0.032, 0.016, -1.088, 16:16:24.460
146, 713.34, 1535.94, 4801.26, -73.30, -0.032, 0.016, -1.088, 16:16:24.460
147, 594.14, 1694.90, 4857.06, -71.19, -0.032, 0.016, -1.088, 16:16:24.460
148, 696.19, 1556.88, 4965.32, -67.03, -0.032, 0.016, -1.088, 16:16:24.461
149, 743.21, 1295.49, 4818.39, -67.38, -0.032, 0.016, -1.088, 16:16:24.483
150, 555.65, 1415.15, 4927.67, -67.33, -0.032, 0.016, -1.088, 16:16:24.484
151, 415.20, 1579.31, 4847.23, -78.72, -0.032, 0.016, -1.088, 16:16:24.484
152, 644.74, 1324.67, 4586.59, -66.51, -0.032, 0.016, -1.088, 16:16:24.484
155, 553.20, 1362.14, 4703.21, -71.42, -0.032, 0.016, -1.088, 16:16:24.505
156, 682.14, 1224.61, 4577.33, -62.82, -0.032, 0.016, -1.088, 16:16:24.505
157, 756.25, 1139.58, 4423.02, -61.83, -0.032, 0.016, -1.088, 16:16:24.506
158, 560.08, 1330.34, 4591.07, -68.48, -0.032, 0.016, -1.088, 16:16:24.506
159, 407.61, 1546.27, 4817.77, -69.66, -0.032, 0.016, -1.088, 16:16:24.527
160, 578.18, 1419.55, 4760.41, -73.54, -0.032, 0.016, -1.088, 16:16:24.528
161, 758.27, 1433.45, 4511.31, -59.92, -0.032, 0.016, -1.088, 16:16:24.528
162, 685.55, 1728.42, 4601.68, -68.14, -0.032, 0.016, -1.088, 16:16:24.528
163, 591.65, 1795.32, 4568.16, -68.06, -0.032, 0.016, -1.088, 16:16:24.550
164, 752.54, 1934.18, 4348.86, -64.08, -0.032, 0.016, -1.088, 16:16:24.550
165, 848.71, 1788.75, 4059.32, -56.31, -0.064, 0.016, -1.024, 16:16:24.551
166, 666.68, 1843.31, 3797.28, -68.51, -0.064, 0.016, -1.024, 16:16:24.551
167, 529.08, 1913.58, 3589.02, -67.27, -0.064, 0.016, -1.024, 16:16:24.573
168, 567.52, 1982.01, 3219.73, -63.29, -0.064, 0.016, -1.024, 16:16:24.573
169, 519.36, 2316.18, 3113.63, -68.15, -0.064, 0.016, -1.024, 16:16:24.573
170, 321.94, 2541.34, 3394.88, -69.67, -0.064, 0.016, -1.024, 16:16:24.573
173, 620.28, 2232.90, 3683.10, -68.52, -0.064, 0.016, -1.024, 16:16:24.595
174, 553.39, 2433.62, 3706.48, -75.42, -0.064, 0.016, -1.024, 16:16:24.595
175, 493.01, 2814.95, 4160.86, -77.79, -0.064, 0.016, -1.024, 16:16:24.595
176, 631.11, 2783.10, 4402.08, -72.12, -0.064, 0.016, -1.024, 16:16:24.595
177, 788.77, 2688.15, 4404.53, -64.28, -0.064, 0.016, -1.024, 16:16:24.617
178, 694.59, 2687.54, 4189.24, -79.10, -0.064, 0.016, -1.024, 16:16:24.618
179, 641.55, 2479.18, 4221.74, -77.73, -0.064, 0.016, -1.024, 16:16:24.618
180, 802.99, 2004.43, 4151.74, -70.81, -0.064, 0.016, -1.024, 16:16:24.619
181, 884.52, 1772.23, 3993.24, -69.23, -0.064, 0.016, -1.024, 16:16:24.640
182, 668.32, 1691.57, 3931.17, -78.85, -0.064, 0.016, -1.024, 16:16:24.640
183, 672.48, 1686.76, 4342.94, -74.96, -0.064, 0.016, -1.024, 16:16:24.641
184, 822.34, 1667.46, 4675.16, -74.41, -0.064, 0.016, -1.024, 16:16:24.641
185, 959.85, 1864.15, 4892.61, -74.83, -0.144, 0.048, -1.024, 16:16:24.663
186, 949.94, 1909.27, 5087.55, -68.90, -0.144, 0.048, -1.024, 16:16:24.663
187, 847.65, 2129.41, 5448.41, -80.60, -0.144, 0.048, -1.024, 16:16:24.663
188, 952.13, 2363.75, 5671.34, -69.33, -0.144, 0.048, -1.024, 16:16:24.663
191, 708.39, 2615.09, 5655.73, -74.54, -0.144, 0.048, -1.024, 16:16:24.685
192, 601.03, 2492.83, 5500.73, -66.42, -0.144, 0.048, -1.024, 16:16:24.685
193, 587.90, 2297.92, 5263.86, -65.61, -0.144, 0.048, -1.024, 16:16:24.686
194, 490.47, 2404.48, 5306.77, -70.55, -0.144, 0.048, -1.024, 16:16:24.686
195, 434.22, 2563.69, 5398.24, -72.97, -0.144, 0.048, -1.024, 16:16:24.708
196, 485.36, 2365.55, 5396.53, -75.62, -0.144, 0.048, -1.024, 16:16:24.708
197, 534.39, 2248.49, 5431.96, -68.66, -0.144, 0.048, -1.024, 16:16:24.709
198, 420.66, 2512.13, 5569.13, -67.61, -0.144, 0.048, -1.024, 16:16:24.709
199, 310.92, 2802.59, 5649.61, -73.77, -0.144, 0.048, -1.024, 16:16:24.730
200, 391.41, 2604.49, 5610.21, -67.31, -0.144, 0.048, -1.024, 16:16:24.730
0, 227.89, -105.74, 203.67, 15.53, -0.144, 0.048, -1.024, 16:16:24.752
3, 288.18, -268.42, 147.61, 26.42, -0.144, 0.048, -1.024, 16:16:24.753
4, 314.60, -421.44, 81.24, 23.17, -0.144, 0.048, -1.024, 16:16:24.753
5, 208.01, -276.64, 135.99, 17.57, -0.144, 0.016, -1.056, 16:16:24.775
6, 119.95, -138.24, 97.69, 19.10, -0.144, 0.016, -1.056, 16:16:24.775
7, 198.46, -381.36, -108.29, 21.72, -0.144, 0.016, -1.056, 16:16:24.776
8, 299.49, -613.97, -250.78, 23.70, -0.144, 0.016, -1.056, 16:16:24.776
9, 275.52, -665.91, -202.24, 18.32, -0.144, 0.016, -1.056, 16:16:24.798
10, 189.44, -641.06, -299.84, 19.09, -0.144, 0.016, -1.056, 16:16:24.798
11, 387.52, -659.34, -221.10, 24.34, -0.144, 0.016, -1.056, 16:16:24.798
12, 464.70, -750.76, -236.19, 20.57, -0.144, 0.016, -1.056, 16:16:24.798
17, 568.68, -424.66, -157.69, 12.78, -0.144, 0.016, -1.056, 16:16:24.820
18, 557.28, -73.07, -100.56, 15.68, -0.144, 0.016, -1.056, 16:16:24.821
19, 578.17, 81.30, -25.99, 15.46, -0.144, 0.016, -1.056, 16:16:24.821
20, 591.50, 58.51, -144.27, 23.11, -0.144, 0.016, -1.056, 16:16:24.821
21, 537.87, 227.07, -3.63, 18.02, -0.144, 0.016, -1.056, 16:16:24.842
22, 456.39, 341.02, 431.04, 8.81, -0.144, 0.016, -1.056, 16:16:24.843
23, 423.41, 258.47, 534.78, 16.40, -0.144, 0.016, -1.056, 16:16:24.843
24, 433.32, -62.36, 437.89, 25.39, -0.144, 0.016, -1.056, 16:16:24.843
25, 311.35, -254.29, 885.16, 19.56, -0.192, 0.032, -0.976, 16:16:24.865
26, 205.82, -113.45, 975.19, 13.51, -0.192, 0.032, -0.976, 16:16:24.866
27, 309.26, 82.68, 1220.37, 23.58, -0.192, 0.032, -0.976, 16:16:24.866
28, 438.28, 569.24, 1373.37, 19.49, -0.192, 0.032, -0.976, 16:16:24.866
29, 347.49, 703.97, 1500.84, 18.51, -0.192, 0.032, -0.976, 16:16:24.888
30, 228.75, 1046.19, 1532.52, 22.99, -0.192, 0.032, -0.976, 16:16:24.888
31, 298.92, 1344.27, 1271.68, 16.91, -0.192, 0.032, -0.976, 16:16:24.888
32, 389.89, 1331.78, 863.23, 17.46, -0.192, 0.032, -0.976, 16:16:24.889
35, 462.82, 1574.32, 598.35, 18.07, -0.192, 0.032, -0.976, 16:16:24.910
36, 523.69, 1619.84, 380.78, 23.67, -0.192, 0.032, -0.976, 16:16:24.911
37, 446.71, 1824.97, 433.96, 13.94, -0.192, 0.032, -0.976, 16:16:24.911
38, 358.85, 1976.71, 451.66, 15.49, -0.192, 0.032, -0.976, 16:16:24.911
39, 423.82, 1861.74, 27.17, 22.55, -0.192, 0.032, -0.976, 16:16:24.933
40, 464.73, 1692.54, -343.23, 19.30, -0.192, 0.032, -0.976, 16:16:24.933
41, 392.06, 1762.59, -375.65, 13.10, -0.192, 0.032, -0.976, 16:16:24.934
42, 283.19, 1846.05, -539.58, 14.17, -0.192, 0.032, -0.976, 16:16:24.934
43, 345.15, 1754.13, -877.97, 21.02, -0.192, 0.032, -0.976, 16:16:24.955
44, 373.20, 1549.66, -904.37, 24.82, -0.192, 0.032, -0.976, 16:16:24.956
45, 285.65, 1599.75, -1152.23, 19.49, -0.240, 0.048, -1.024, 16:16:24.956
46, 224.59, 1735.62, -1190.98, 14.36, -0.240, 0.048, -1.024, 16:16:24.957
47, 346.14, 1487.52, -960.28, 12.98, -0.240, 0.048, -1.024, 16:16:24.977
48, 479.23, 1189.99, -753.28, 24.68, -0.240, 0.048, -1.024, 16:16:24.977
49, 406.59, 1257.18, -696.11, 11.65, -0.240, 0.048, -1.024, 16:16:24.978
50, 343.51, 1381.99, -629.08, 17.15, -0.240, 0.048, -1.024, 16:16:24.978
53, 290.01, 1378.24, -307.91, 13.33, -0.240, 0.048, -1.024, 16:16:25.000
54, 269.01, 1406.59, 6.54, 6.71, -0.240, 0.048, -1.024, 16:16:25.000
55, 366.61, 1086.01, 102.34, 8.47, -0.240, 0.048, -1.024, 16:16:25.001
56, 490.06, 850.81, 372.05, 14.09, -0.240, 0.048, -1.024, 16:16:25.001
57, 412.45, 1011.18, 760.62, 11.57, -0.240, 0.048, -1.024, 16:16:25.023
58, 313.91, 1219.50, 734.89, 3.12, -0.240, 0.048, -1.024, 16:16:25.023
59, 376.51, 1143.23, 659.03, 11.17, -0.240, 0.048, -1.024, 16:16:25.023
60, 461.08, 1058.57, 655.95, 16.07, -0.240, 0.048, -1.024, 16:16:25.023
61, 395.21, 1209.91, 802.18, 10.46, -0.240, 0.048, -1.024, 16:16:25.045
62, 339.46, 1342.70, 870.74, 2.57, -0.240, 0.048, -1.024, 16:16:25.045
63, 399.66, 1212.15, 671.83, 8.45, -0.240, 0.048, -1.024, 16:16:25.046
64, 477.26, 1102.39, 433.27, 12.17, -0.240, 0.048, -1.024, 16:16:25.046
65, 392.31, 1292.35, 386.12, 8.96, -0.208, 0.016, -1.056, 16:16:25.068
66, 285.89, 1516.15, 66.15, 9.82, -0.208, 0.016, -1.056, 16:16:25.068
67, 356.06, 1457.53, -97.93, 7.01, -0.208, 0.016, -1.056, 16:16:25.068
68, 461.19, 1366.93, -238.22, 13.28, -0.208, 0.016, -1.056, 16:16:25.068
71, 551.35, 984.97, -172.11, 15.95, -0.208, 0.016, -1.056, 16:16:25.090
72, 638.95, 870.90, -280.97, 22.62, -0.208, 0.016, -1.056, 16:16:25.090
73, 546.50, 842.08, -293.76, 20.65, -0.208, 0.016, -1.056, 16:16:25.090
74, 387.94, 712.60, -184.77, 11.35, -0.208, 0.016, -1.056, 16:16:25.091
75, 369.82, 313.07, -416.57, 17.58, -0.208, 0.016, -1.056, 16:16:25.112
76, 380.73, -81.63, -771.66, 9.83, -0.208, 0.016, -1.056, 16:16:25.113
77, 329.91, 225.92, -742.56, 7.06, -0.208, 0.016, -1.056, 16:16:25.113
78, 322.88, 378.03, -630.84, 6.23, -0.208, 0.016, -1.056, 16:16:25.113
79, 411.45, 800.30, -614.09, 16.53, -0.208, 0.016, -1.056, 16:16:25.135
80, 515.90, 925.22, -696.68, 17.90, -0.208, 0.016, -1.056, 16:16:25.135
81, 546.94, 1279.60, -519.45, 14.47, -0.208, 0.016, -1.056, 16:16:25.135
82, 496.01, 1671.33, -362.81, 9.80, -0.208, 0.016, -1.056, 16:16:25.136
83, 541.83, 1673.66, -352.85, 20.48, -0.208, 0.016, -1.056, 16:16:25.158
84, 624.11, 1836.80, -366.13, 24.83, -0.208, 0.016, -1.056, 16:16:25.158
85, 495.86, 2103.41, -186.86, 12.78, -0.256, 0.048, -1.056, 16:16:25.158
86, 378.97, 2378.71, -18.66, 10.40, -0.256, 0.048, -1.056, 16:16:25.159
89, 300.94, 2525.88, 209.18, 0.48, -0.256, 0.048, -1.056, 16:16:25.180
90, 218.41, 2637.95, 413.07, 1.73, -0.256, 0.048, -1.056, 16:16:25.180
91, 162.09, 2615.06, 104.46, 8.27, -0.256, 0.048, -1.056, 16:16:25.180
92, 296.47, 2299.84, -116.67, 14.90, -0.256, 0.048, -1.056, 16:16:25.181
93, 244.78, 2444.62, 114.14, 11.26, -0.256, 0.048, -1.056, 16:16:25.202
94, 109.85, 2641.14, 404.19, 1.62, -0.256, 0.048, -1.056, 16:16:25.205
95, 192.80, 2667.91, 411.47, 6.49, -0.256, 0.048, -1.056, 16:16:25.205
96, 357.14, 2592.12, 398.02, 14.46, -0.256, 0.048, -1.056, 16:16:25.205
97, 273.71, 2686.18, 520.85, 10.84, -0.256, 0.048, -1.056, 16:16:25.225
98, 160.26, 2786.17, 617.78, 0.85, -0.256, 0.048, -1.056, 16:16:25.225
99, 235.18, 2743.54, 512.93, 11.55, -0.256, 0.048, -1.056, 16:16:25.225
100, 350.25, 2669.02, 404.09, 11.77, -0.256, 0.048, -1.056, 16:16:25.225
101, 296.25, 2744.33, 468.48, 5.28, -0.256, 0.048, -1.056, 16:16:25.247
102, 250.28, 2819.86, 472.59, 5.55, -0.256, 0.048, -1.056, 16:16:25.248
103, 364.41, 2755.03, -14.71, 3.58, -0.256, 0.048, -1.056, 16:16:25.248
104, 477.25, 2787.46, -494.78, 11.93, -0.256, 0.048, -1.056, 16:16:25.248
107, 616.03, 2440.80, -425.36, 19.17, -0.256, 0.048, -1.056, 16:16:25.270
108, 733.04, 2239.42, -310.27, 30.42, -0.256, 0.048, -1.056, 16:16:25.270
109, 693.71, 2126.61, -194.67, 22.19, -0.256, 0.048, -1.056, 16:16:25.270
110, 633.66, 1915.47, 112.37, 17.12, -0.256, 0.048, -1.056, 16:16:25.271
111, 753.34, 1865.99, 308.04, 24.79, -0.256, 0.048, -1.056, 16:16:25.292
112, 850.77, 1994.10, 318.92, 25.27, -0.256, 0.048, -1.056, 16:16:25.293
113, 781.59, 2295.44, 384.26, 21.98, -0.256, 0.048, -1.056, 16:16:25.293
114, 648.50, 2682.53, 695.39, 17.64, -0.256, 0.048, -1.056, 16:16:25.293
115, 714.99, 2945.70, 375.61, 25.10, -0.256, 0.048, -1.056, 16:16:25.315
116, 796.50, 3091.93, 373.20, 23.56, -0.256, 0.048, -1.056, 16:16:25.316
117, 718.75, 3162.84, 425.74, 18.76, -0.256, 0.048, -1.056, 16:16:25.323
118, 532.46, 3287.59, 466.74, 19.02, -0.256, 0.048, -1.056, 16:16:25.324
119, 520.18, 3343.43, 270.02, 19.39, -0.256, 0.048, -1.056, 16:16:25.337
120, 611.89, 3350.68, -3.02, 32.21, -0.256, 0.048, -1.056, 16:16:25.338
121, 524.97, 3485.82, 70.21, 11.78, -0.256, 0.048, -1.056, 16:16:25.338
122, 417.59, 3656.16, 205.20, 20.07, -0.256, 0.048, -1.056, 16:16:25.338
125, 341.40, 3621.60, 304.16, 12.95, -0.272, 0.032, -0.976, 16:16:25.362
126, 252.28, 3863.31, 289.97, 14.70, -0.272, 0.032, -0.976, 16:16:25.362
127, 249.83, 3867.41, -24.98, 18.94, -0.272, 0.032, -0.976, 16:16:25.362
128, 92.31, 3615.46, -375.17, 16.87, -0.272, 0.032, -0.976, 16:16:25.363
