%OpenBCI Raw EEG Data
%
%Sample Rate = 200.0 Hz
%First Column = SampleIndex
%Last Column = Timestamp 
%Other Columns = EEG data in microvolts followed by Accel Data (in G) interleaved with Aux Data
0, -1045.47, -1040.66, -1030.71, -192.62, -0.112, 0.016, -1.056, 17:11:12.269
1, -318.64, -307.21, -991.20, -176.07, -0.112, 0.016, -1.056, 17:11:12.270
2, 338.47, 343.09, -1081.18, -287.61, -0.112, 0.016, -1.056, 17:11:12.270
3, -375.00, -374.29, -1141.60, -319.21, -0.112, 0.016, -1.056, 17:11:12.314
4, -1050.99, -1043.52, -1038.06, -190.73, -0.112, 0.016, -1.056, 17:11:12.314
5, -319.97, -307.80, -992.17, -178.15, -0.112, 0.016, -1.056, 17:11:12.315
6, 347.21, 350.93, -1081.01, -296.36, -0.112, 0.016, -1.056, 17:11:12.315
7, -375.76, -374.68, -1138.45, -320.50, -0.112, 0.016, -1.056, 17:11:12.337
8, -1047.60, -1041.06, -1040.10, -198.00, -0.112, 0.016, -1.056, 17:11:12.337
9, -312.69, -303.70, -978.37, -168.12, -0.112, 0.016, -1.056, 17:11:12.337
10, 349.28, 348.52, -1067.17, -277.95, -0.112, 0.016, -1.056, 17:11:12.338
11, -375.10, -372.46, -1124.33, -299.36, -0.112, 0.016, -1.056, 17:11:12.360
12, -1055.13, -1044.50, -1033.93, -189.81, -0.112, 0.016, -1.056, 17:11:12.360
13, -304.35, -300.59, -978.51, -168.84, -0.112, 0.016, -1.056, 17:11:12.360
14, 338.33, 346.65, -1080.87, -290.72, -0.112, 0.016, -1.056, 17:11:12.361
15, -380.98, -378.80, -1125.96, -311.86, -0.112, 0.016, -1.056, 17:11:12.382
16, -1052.35, -1048.96, -1043.89, -199.18, -0.112, 0.016, -1.056, 17:11:12.382
17, -314.49, -308.81, -983.52, -175.61, -0.112, 0.016, -1.056, 17:11:12.383
18, 355.46, 360.23, -1060.15, -276.36, -0.112, 0.016, -1.056, 17:11:12.385
21, 1100.96, 1105.15, -1009.88, -256.99, -0.112, 0.016, -1.056, 17:11:12.404
22, 1735.38, 1727.37, -1115.73, -386.67, -0.112, 0.016, -1.056, 17:11:12.404
23, 1017.28, 1017.39, -1156.04, -400.78, -0.112, 0.016, -1.056, 17:11:12.405
24, 354.67, 355.48, -1060.24, -276.20, -0.112, 0.016, -1.056, 17:11:12.405
25, 1095.94, 1103.25, -1011.30, -248.24, -0.112, 0.016, -1.056, 17:11:12.427
26, 1755.59, 1755.27, -1096.37, -361.63, -0.112, 0.016, -1.056, 17:11:12.427
27, 1036.47, 1033.27, -1146.35, -384.15, -0.112, 0.016, -1.056, 17:11:12.428
28, 360.00, 365.43, -1060.37, -271.41, -0.112, 0.016, -1.056, 17:11:12.428
29, 1088.57, 1096.16, -1012.51, -261.38, -0.112, 0.016, -1.056, 17:11:12.449
30, 1756.90, 1761.25, -1099.58, -375.15, -0.112, 0.016, -1.056, 17:11:12.449
31, 1010.98, 1009.75, -1154.09, -396.37, -0.112, 0.016, -1.056, 17:11:12.472
32, 346.43, 350.80, -1067.34, -275.49, -0.112, 0.016, -1.056, 17:11:12.472
35, -386.25, -385.43, -1136.03, -304.87, -0.112, 0.016, -1.056, 17:11:12.473
36, -1061.66, -1052.21, -1046.22, -188.25, -0.112, 0.016, -1.056, 17:11:12.473
37, -311.87, -302.26, -982.54, -176.27, -0.112, 0.016, -1.056, 17:11:12.495
38, 340.34, 350.02, -1078.67, -293.82, -0.112, 0.016, -1.056, 17:11:12.495
39, -381.23, -378.52, -1126.20, -304.28, -0.112, 0.016, -1.056, 17:11:12.495
40, -1049.00, -1040.48, -1024.21, -183.90, -0.112, 0.016, -1.056, 17:11:12.496
41, -314.81, -299.68, -988.55, -167.09, -0.112, 0.016, -1.056, 17:11:12.517
42, 349.55, 355.48, -1072.66, -276.96, -0.112, 0.016, -1.056, 17:11:12.517
43, -384.02, -379.65, -1128.72, -309.54, -0.112, 0.016, -1.056, 17:11:12.517
44, -1052.48, -1042.70, -1041.87, -186.94, -0.112, 0.016, -1.056, 17:11:12.517
45, -305.96, -300.33, -987.81, -176.97, -0.112, 0.016, -1.056, 17:11:12.539
46, 339.85, 345.87, -1066.29, -293.17, -0.112, 0.016, -1.056, 17:11:12.540
47, -396.10, -392.82, -1131.02, -313.02, -0.112, 0.016, -1.056, 17:11:12.540
48, -1037.85, -1026.47, -1030.04, -177.22, -0.112, 0.016, -1.056, 17:11:12.541
53, -284.69, -266.09, -967.07, -155.26, -0.112, 0.016, -1.056, 17:11:12.562
54, 380.25, 388.63, -1045.01, -264.88, -0.112, 0.016, -1.056, 17:11:12.562
55, -354.16, -345.56, -1099.84, -280.97, -0.112, 0.016, -1.056, 17:11:12.562
56, -1013.99, -1002.15, -1009.31, -155.34, -0.112, 0.016, -1.056, 17:11:12.562
57, -264.06, -248.56, -964.85, -148.07, -0.112, 0.016, -1.056, 17:11:12.584
58, 361.11, 376.02, -1058.07, -267.12, -0.112, 0.016, -1.056, 17:11:12.584
59, -358.61, -347.28, -1097.41, -287.07, -0.112, 0.016, -1.056, 17:11:12.585
60, -1015.95, -1002.84, -1020.04, -162.61, -0.112, 0.016, -1.056, 17:11:12.586
61, -280.86, -265.98, -972.45, -145.74, -0.112, 0.016, -1.056, 17:11:12.608
62, 378.99, 391.65, -1034.08, -257.68, -0.112, 0.016, -1.056, 17:11:12.608
63, -360.01, -347.81, -1094.47, -285.42, -0.112, 0.016, -1.056, 17:11:12.629
64, -1023.08, -1005.20, -1019.90, -173.65, -0.112, 0.016, -1.056, 17:11:12.629
65, -262.77, -248.29, -949.31, -132.16, -0.112, 0.016, -1.056, 17:11:12.630
66, 376.15, 388.49, -1052.52, -259.54, -0.112, 0.016, -1.056, 17:11:12.630
67, -365.16, -360.50, -1105.98, -292.59, -0.112, 0.016, -1.056, 17:11:12.651
68, -1014.81, -1001.82, -1013.99, -166.34, -0.112, 0.016, -1.056, 17:11:12.652
71, -1754.00, -1747.94, -1087.03, -203.01, -0.112, 0.016, -1.056, 17:11:12.652
72, -2412.09, -2393.60, -981.71, -74.66, -0.112, 0.016, -1.056, 17:11:12.652
73, -1658.02, -1638.78, -929.09, -47.95, -0.112, 0.016, -1.056, 17:11:12.674
74, -1008.10, -995.77, -1025.95, -190.15, -0.112, 0.016, -1.056, 17:11:12.675
75, -1764.32, -1756.13, -1122.93, -234.23, -0.112, 0.016, -1.056, 17:11:12.675
76, -2426.13, -2410.09, -992.31, -69.56, -0.112, 0.016, -1.056, 17:11:12.675
77, -1661.24, -1644.22, -930.90, -50.43, -0.112, 0.016, -1.056, 17:11:12.697
78, -1041.60, -1026.62, -1056.88, -188.28, -0.112, 0.016, -1.056, 17:11:12.697
79, -1778.73, -1765.83, -1119.66, -214.75, -0.112, 0.016, -1.056, 17:11:12.697
80, -2434.11, -2411.58, -1040.63, -102.95, -0.112, 0.016, -1.056, 17:11:12.697
83, -3156.70, -3148.75, -1090.25, -105.31, -0.112, 0.016, -1.056, 17:11:12.719
84, -3805.98, -3793.14, -998.43, 13.58, -0.112, 0.016, -1.056, 17:11:12.719
85, -3071.78, -3047.95, -943.04, 22.33, -0.112, 0.016, -1.056, 17:11:12.719
86, -2433.52, -2411.67, -1050.09, -101.35, -0.112, 0.016, -1.056, 17:11:12.720
89, -1688.85, -1664.99, -994.26, -74.69, -0.112, 0.016, -1.056, 17:11:12.787
90, -1044.06, -1020.14, -1079.21, -185.72, -0.112, 0.016, -1.056, 17:11:12.787
91, -1779.04, -1759.71, -1132.96, -208.02, -0.112, 0.016, -1.056, 17:11:12.788
92, -2434.47, -2408.53, -1040.24, -88.38, -0.112, 0.016, -1.056, 17:11:12.788
93, -1668.48, -1644.59, -977.59, -65.71, -0.112, 0.016, -1.056, 17:11:12.809
94, -1040.52, -1023.27, -1061.90, -175.65, -0.112, 0.016, -1.056, 17:11:12.810
95, -1774.92, -1756.56, -1116.22, -201.89, -0.112, 0.016, -1.056, 17:11:12.831
96, -2420.44, -2397.52, -1018.22, -76.03, -0.112, 0.016, -1.056, 17:11:12.832
97, -1669.49, -1644.53, -965.12, -56.04, -0.112, 0.016, -1.056, 17:11:12.832
98, -1030.67, -1012.63, -1057.25, -172.67, -0.112, 0.016, -1.056, 17:11:12.832
99, -1779.90, -1759.13, -1113.45, -198.46, -0.112, 0.016, -1.056, 17:11:12.854
100, -2426.45, -2403.21, -1023.23, -79.02, -0.112, 0.016, -1.056, 17:11:12.854
101, -1682.50, -1657.32, -971.32, -60.06, -0.112, 0.016, -1.056, 17:11:12.855
102, -1035.04, -1015.79, -1058.12, -176.61, -0.112, 0.016, -1.056, 17:11:12.855
111, -1771.39, -1756.22, -1115.82, -202.99, -0.112, 0.016, -1.056, 17:11:12.876
112, -2423.33, -2401.28, -1020.73, -74.38, -0.112, 0.016, -1.056, 17:11:12.877
115, -3161.24, -3138.11, -1069.53, -93.29, -0.112, 0.016, -1.056, 17:11:12.877
116, -3806.16, -3777.96, -977.49, 26.19, -0.112, 0.016, -1.056, 17:11:12.877
117, -3054.05, -3020.50, -924.81, 51.01, -0.112, 0.016, -1.056, 17:11:12.944
118, -2423.53, -2399.16, -1017.42, -73.20, -0.112, 0.016, -1.056, 17:11:12.944
119, -3167.53, -3145.33, -1078.69, -94.64, -0.112, 0.016, -1.056, 17:11:12.945
120, -3790.05, -3774.46, -969.11, 41.00, -0.112, 0.016, -1.056, 17:11:12.945
125, -3037.89, -3022.74, -916.81, 62.34, -0.112, 0.016, -1.056, 17:11:12.990
126, -2409.67, -2399.93, -1013.28, -64.79, -0.112, 0.016, -1.056, 17:11:12.990
127, -3154.10, -3141.68, -1063.99, -75.62, -0.112, 0.016, -1.056, 17:11:13.012
128, -3784.26, -3774.57, -965.77, 46.58, -0.112, 0.016, -1.056, 17:11:13.012
129, -3024.07, -3014.52, -914.63, 64.52, -0.112, 0.016, -1.056, 17:11:13.012
130, -2410.49, -2403.32, -1013.30, -50.47, -0.112, 0.016, -1.056, 17:11:13.012
131, -3146.49, -3138.03, -1058.66, -64.13, -0.112, 0.016, -1.056, 17:11:13.034
132, -3791.82, -3774.18, -960.61, 55.98, -0.112, 0.016, -1.056, 17:11:13.034
133, -3028.60, -3015.21, -905.22, 69.78, -0.112, 0.016, -1.056, 17:11:13.035
134, -2395.40, -2388.14, -1003.15, -49.29, -0.112, 0.016, -1.056, 17:11:13.035
143, -3131.99, -3133.13, -1021.57, -38.26, -0.112, 0.016, -1.056, 17:11:13.058
144, -3768.33, -3763.97, -934.46, 70.26, -0.112, 0.016, -1.056, 17:11:13.058
147, -4517.42, -4518.08, -995.57, 46.68, -0.112, 0.016, -1.056, 17:11:13.058
148, -5158.02, -5146.90, -909.80, 166.60, -0.112, 0.016, -1.056, 17:11:13.058
151, -5912.74, -5898.80, -956.96, 138.91, -0.112, 0.016, -1.056, 17:11:13.079
152, -6554.73, -6539.69, -871.62, 257.57, -0.112, 0.016, -1.056, 17:11:13.080
155, -7299.59, -7286.14, -922.09, 233.94, -0.112, 0.016, -1.056, 17:11:13.080
156, -7926.90, -7918.36, -829.08, 349.17, -0.112, 0.016, -1.056, 17:11:13.080
161, -7170.63, -7154.65, -778.01, 364.46, -0.112, 0.016, -1.056, 17:11:13.102
162, -6538.57, -6529.13, -863.80, 252.58, -0.112, 0.016, -1.056, 17:11:13.102
163, -7311.14, -7303.28, -925.42, 222.72, -0.112, 0.016, -1.056, 17:11:13.102
164, -7938.24, -7918.50, -826.27, 351.88, -0.112, 0.016, -1.056, 17:11:13.102
165, -7162.45, -7148.90, -779.37, 365.13, -0.112, 0.016, -1.056, 17:11:13.148
166, -6555.42, -6542.12, -874.71, 248.46, -0.112, 0.016, -1.056, 17:11:13.148
167, -7306.09, -7300.89, -928.72, 221.97, -0.112, 0.016, -1.056, 17:11:13.148
168, -7932.16, -7924.66, -830.97, 338.30, -0.112, 0.016, -1.056, 17:11:13.149
169, -7173.11, -7159.74, -782.93, 361.03, -0.112, 0.016, -1.056, 17:11:13.169
170, -6556.16, -6551.29, -875.03, 247.03, -0.112, 0.016, -1.056, 17:11:13.169
171, -7306.04, -7300.06, -928.63, 223.91, -0.112, 0.016, -1.056, 17:11:13.169
172, -7942.86, -7929.20, -845.30, 336.82, -0.112, 0.016, -1.056, 17:11:13.169
173, -7182.18, -7163.20, -792.98, 352.25, -0.112, 0.016, -1.056, 17:11:13.192
174, -6556.39, -6547.71, -882.93, 229.02, -0.112, 0.016, -1.056, 17:11:13.192
175, -7309.23, -7305.15, -921.46, 222.33, -0.112, 0.016, -1.056, 17:11:13.193
176, -7932.24, -7922.46, -834.34, 342.86, -0.112, 0.016, -1.056, 17:11:13.193
177, -7180.46, -7165.78, -791.67, 348.75, -0.112, 0.016, -1.056, 17:11:13.214
178, -6550.27, -6539.35, -880.38, 232.14, -0.112, 0.016, -1.056, 17:11:13.214
183, -7291.99, -7280.95, -922.81, 229.72, -0.112, 0.016, -1.056, 17:11:13.215
184, -7927.05, -7912.56, -840.51, 341.37, -0.112, 0.016, -1.056, 17:11:13.215
187, -8697.51, -8687.82, -890.01, 319.28, -0.112, 0.016, -1.056, 17:11:13.237
188, -9308.19, -9297.53, -784.56, 457.44, -0.112, 0.016, -1.056, 17:11:13.237
189, -8546.25, -8529.27, -743.30, 462.54, -0.112, 0.016, -1.056, 17:11:13.237
190, -7921.11, -7913.32, -836.40, 343.90, -0.112, 0.016, -1.056, 17:11:13.237
191, -8683.20, -8674.40, -879.74, 330.01, -0.112, 0.016, -1.056, 17:11:13.260
192, -9297.41, -9280.05, -779.75, 456.16, -0.112, 0.016, -1.056, 17:11:13.260
193, -8538.23, -8521.60, -726.23, 472.07, -0.112, 0.016, -1.056, 17:11:13.304
194, -7915.31, -7907.68, -830.74, 351.58, -0.112, 0.016, -1.056, 17:11:13.304
197, -7152.28, -7138.87, -778.88, 366.46, -0.112, 0.016, -1.056, 17:11:13.305
198, -6522.12, -6514.70, -858.02, 255.28, -0.112, 0.016, -1.056, 17:11:13.305
199, -7289.87, -7284.74, -921.42, 227.15, -0.112, 0.016, -1.056, 17:11:13.326
200, -7929.35, -7913.63, -824.77, 345.06, -0.112, 0.016, -1.056, 17:11:13.327
0, -261.56, -252.45, -978.87, -166.77, -0.112, 0.016, -1.056, 17:11:13.327
1, 344.01, 349.69, -1067.15, -293.27, -0.112, 0.016, -1.056, 17:11:13.349
2, -409.39, -412.60, -1117.46, -309.31, -0.112, 0.016, -1.056, 17:11:13.349
3, -1036.63, -1029.61, -1028.63, -191.04, -0.112, 0.016, -1.056, 17:11:13.349
4, -275.82, -269.33, -983.80, -176.08, -0.112, 0.016, -1.056, 17:11:13.350
9, 321.91, 329.49, -1078.74, -298.02, -0.112, 0.016, -1.056, 17:11:13.372
10, -437.42, -432.70, -1131.65, -328.11, -0.112, 0.016, -1.056, 17:11:13.372
13, 178.37, 177.21, -1222.03, -442.84, -0.112, 0.016, -1.056, 17:11:13.373
14, -592.72, -592.86, -1274.25, -457.13, -0.112, 0.016, -1.056, 17:11:13.373
17, 23.50, 15.04, -1365.94, -576.96, -0.112, 0.016, -1.056, 17:11:13.394
18, -741.75, -752.96, -1414.46, -601.43, -0.112, 0.016, -1.056, 17:11:13.394
19, -1376.15, -1373.91, -1324.50, -481.03, -0.112, 0.016, -1.056, 17:11:13.395
20, -605.46, -604.16, -1284.96, -476.66, -0.112, 0.016, -1.056, 17:11:13.395
23, -1210.19, -1206.90, -1180.68, -346.03, -0.112, 0.016, -1.056, 17:11:13.417
24, -439.39, -430.87, -1121.15, -334.45, -0.112, 0.016, -1.056, 17:11:13.417
25, 175.08, 170.88, -1226.36, -459.84, -0.112, 0.016, -1.056, 17:11:13.417
26, -603.43, -606.64, -1278.24, -481.89, -0.112, 0.016, -1.056, 17:11:13.417
27, -1216.79, -1212.33, -1192.80, -365.35, -0.112, 0.016, -1.056, 17:11:13.439
28, -442.80, -434.93, -1126.27, -348.92, -0.112, 0.016, -1.056, 17:11:13.440
29, 164.78, 166.23, -1227.47, -473.00, -0.112, 0.016, -1.056, 17:11:13.462
30, -607.46, -606.70, -1280.68, -485.74, -0.112, 0.016, -1.056, 17:11:13.462
31, -1218.30, -1217.03, -1191.75, -365.70, -0.112, 0.016, -1.056, 17:11:13.463
32, -447.05, -439.99, -1149.47, -350.45, -0.112, 0.016, -1.056, 17:11:13.463
33, 164.57, 168.37, -1235.66, -460.19, -0.112, 0.016, -1.056, 17:11:13.484
34, -606.66, -604.36, -1270.27, -465.75, -0.112, 0.016, -1.056, 17:11:13.484
35, -1204.93, -1201.14, -1168.89, -338.16, -0.112, 0.016, -1.056, 17:11:13.484
36, -432.50, -424.88, -1128.57, -333.46, -0.112, 0.016, -1.056, 17:11:13.485
37, 151.77, 154.55, -1223.72, -461.17, -0.112, 0.016, -1.056, 17:11:13.506
38, -596.96, -598.31, -1273.09, -465.70, -0.112, 0.016, -1.056, 17:11:13.507
39, -1210.15, -1203.30, -1179.87, -342.88, -0.112, 0.016, -1.056, 17:11:13.507
40, -438.28, -432.38, -1137.27, -346.52, -0.112, 0.016, -1.056, 17:11:13.507
45, 172.69, 172.27, -1240.74, -466.28, -0.112, 0.016, -1.056, 17:11:13.529
46, -613.83, -619.23, -1298.79, -504.25, -0.112, 0.016, -1.056, 17:11:13.529
47, -1207.81, -1211.38, -1180.55, -373.99, -0.112, 0.016, -1.056, 17:11:13.530
48, -424.91, -423.77, -1105.74, -318.12, -0.112, 0.016, -1.056, 17:11:13.530
49, 185.50, 179.03, -1206.28, -441.08, -0.112, 0.016, -1.056, 17:11:13.551
50, -592.68, -600.13, -1227.64, -445.49, -0.112, 0.016, -1.056, 17:11:13.552
51, -1194.58, -1193.23, -1129.44, -323.99, -0.112, 0.016, -1.056, 17:11:13.552
52, -409.14, -406.21, -1068.32, -286.55, -0.112, 0.016, -1.056, 17:11:13.552
53, 196.42, 193.49, -1157.92, -401.87, -0.112, 0.016, -1.056, 17:11:13.574
54, -572.62, -581.29, -1216.30, -435.07, -0.112, 0.016, -1.056, 17:11:13.574
55, -1189.13, -1187.96, -1131.23, -320.29, -0.112, 0.016, -1.056, 17:11:13.575
56, -404.54, -406.66, -1087.96, -308.46, -0.112, 0.016, -1.056, 17:11:13.575
59, -1025.38, -1018.60, -998.32, -199.89, -0.112, 0.016, -1.056, 17:11:13.619
60, -247.99, -246.26, -972.07, -200.16, -0.112, 0.016, -1.056, 17:11:13.619
61, 349.51, 352.02, -1064.21, -316.46, -0.112, 0.016, -1.056, 17:11:13.620
62, -427.95, -431.57, -1117.72, -331.75, -0.112, 0.016, -1.056, 17:11:13.620
63, -1018.01, -1017.34, -1016.43, -211.55, -0.112, 0.016, -1.056, 17:11:13.642
64, -247.70, -242.04, -971.19, -197.91, -0.112, 0.016, -1.056, 17:11:13.642
65, 348.56, 350.89, -1074.82, -313.41, -0.112, 0.016, -1.056, 17:11:13.643
66, -426.36, -427.92, -1118.65, -335.22, -0.112, 0.016, -1.056, 17:11:13.643
67, -1033.43, -1027.79, -1022.91, -210.96, -0.112, 0.016, -1.056, 17:11:13.664
68, -260.34, -260.05, -987.27, -202.90, -0.112, 0.016, -1.056, 17:11:13.664
69, 345.58, 342.85, -1082.21, -326.05, -0.112, 0.016, -1.056, 17:11:13.664
70, -434.00, -437.76, -1139.56, -332.31, -0.112, 0.016, -1.056, 17:11:13.665
71, -1039.83, -1032.13, -1031.95, -208.97, -0.112, 0.016, -1.056, 17:11:13.687
72, -258.72, -256.89, -981.48, -200.76, -0.112, 0.016, -1.056, 17:11:13.687
77, 325.69, 327.12, -1087.76, -327.55, -0.112, 0.016, -1.056, 17:11:13.687
78, -441.31, -444.98, -1130.36, -335.17, -0.112, 0.016, -1.056, 17:11:13.687
81, 156.42, 149.97, -1230.75, -453.64, -0.112, 0.016, -1.056, 17:11:13.709
82, -646.54, -655.98, -1295.11, -480.19, -0.112, 0.016, -1.056, 17:11:13.709
83, -1244.34, -1247.84, -1217.06, -376.51, -0.112, 0.016, -1.056, 17:11:13.710
84, -438.38, -442.80, -1122.56, -353.49, -0.112, 0.016, -1.056, 17:11:13.710
85, 150.45, 146.91, -1202.73, -447.10, -0.112, 0.016, -1.056, 17:11:13.732
86, -631.17, -637.25, -1264.95, -469.39, -0.112, 0.016, -1.056, 17:11:13.732
87, -1213.41, -1218.07, -1159.78, -339.18, -0.112, 0.016, -1.056, 17:11:13.732
88, -428.61, -432.78, -1111.08, -324.88, -0.112, 0.016, -1.056, 17:11:13.732
89, 151.41, 143.63, -1212.62, -444.92, -0.112, 0.016, -1.056, 17:11:13.754
90, -619.74, -628.68, -1263.00, -470.26, -0.112, 0.016, -1.056, 17:11:13.754
91, -1230.55, -1229.53, -1173.36, -349.51, -0.112, 0.016, -1.056, 17:11:13.777
92, -447.10, -445.30, -1134.91, -352.25, -0.112, 0.016, -1.056, 17:11:13.777
95, -1045.97, -1037.46, -1037.15, -227.01, -0.112, 0.016, -1.056, 17:11:13.777
96, -261.92, -252.47, -995.02, -219.82, -0.112, 0.016, -1.056, 17:11:13.777
97, 326.32, 326.77, -1100.03, -353.11, -0.112, 0.016, -1.056, 17:11:13.799
98, -459.31, -461.23, -1150.43, -359.96, -0.112, 0.016, -1.056, 17:11:13.799
99, -1031.91, -1022.36, -1030.14, -216.99, -0.112, 0.016, -1.056, 17:11:13.800
100, -266.64, -260.75, -1000.96, -225.98, -0.112, 0.016, -1.056, 17:11:13.800
101, 328.15, 329.60, -1092.92, -340.17, -0.112, 0.016, -1.056, 17:11:13.822
102, -448.25, -447.39, -1127.20, -352.41, -0.112, 0.016, -1.056, 17:11:13.822
103, -1039.41, -1036.48, -1028.00, -227.57, -0.112, 0.016, -1.056, 17:11:13.823
104, -256.58, -251.93, -983.92, -224.01, -0.112, 0.016, -1.056, 17:11:13.823
105, 326.80, 333.19, -1083.77, -341.27, -0.112, 0.016, -1.056, 17:11:13.845
106, -454.98, -452.97, -1131.72, -362.23, -0.112, 0.016, -1.056, 17:11:13.848
107, -1025.28, -1019.36, -1030.27, -229.67, -0.112, 0.016, -1.056, 17:11:13.848
108, -243.95, -231.54, -981.28, -212.94, -0.112, 0.016, -1.056, 17:11:13.848
113, 365.35, 378.02, -1015.11, -273.70, -0.112, 0.016, -1.056, 17:11:13.867
114, -417.00, -411.97, -1075.54, -298.85, -0.112, 0.016, -1.056, 17:11:13.867
115, -1017.46, -1004.46, -1010.84, -198.44, -0.112, 0.016, -1.056, 17:11:13.868
116, -243.73, -223.44, -976.94, -192.26, -0.112, 0.016, -1.056, 17:11:13.868
117, 342.72, 359.04, -1093.43, -328.34, -0.112, 0.016, -1.056, 17:11:13.890
118, -460.34, -449.36, -1136.46, -347.73, -0.112, 0.016, -1.056, 17:11:13.890
119, -1032.37, -1018.63, -1021.80, -211.15, -0.112, 0.016, -1.056, 17:11:13.891
120, -239.27, -223.26, -977.54, -198.79, -0.112, 0.016, -1.056, 17:11:13.891
121, 337.54, 350.82, -1083.96, -332.43, -0.112, 0.016, -1.056, 17:11:13.912
122, -444.97, -435.27, -1123.01, -340.19, -0.112, 0.016, -1.056, 17:11:13.913
123, -1032.76, -1020.43, -1036.03, -217.98, -0.112, 0.016, -1.056, 17:11:13.934
124, -238.35, -221.71, -984.62, -203.89, -0.112, 0.016, -1.056, 17:11:13.934
125, 342.64, 349.45, -1084.08, -333.57, -0.112, 0.016, -1.056, 17:11:13.934
126, -445.90, -437.45, -1127.15, -340.27, -0.112, 0.016, -1.056, 17:11:13.935
127, -1033.67, -1011.23, -1016.00, -207.85, -0.112, 0.016, -1.056, 17:11:13.957
128, -241.86, -224.53, -966.00, -200.94, -0.112, 0.016, -1.056, 17:11:13.957
131, -824.05, -798.53, -875.18, -93.48, -0.112, 0.016, -1.056, 17:11:13.957
132, -25.58, 2.40, -820.81, -68.46, -0.112, 0.016, -1.056, 17:11:13.957
133, 554.33, 576.76, -911.34, -183.34, -0.112, 0.016, -1.056, 17:11:13.980
134, -233.58, -215.34, -957.69, -193.06, -0.112, 0.016, -1.056, 17:11:13.980
135, -809.53, -781.82, -865.71, -67.36, -0.112, 0.016, -1.056, 17:11:13.980
136, -35.19, -5.72, -824.18, -57.90, -0.112, 0.016, -1.056, 17:11:13.981
137, 563.96, 583.83, -905.95, -179.32, -0.112, 0.016, -1.056, 17:11:14.002
138, -228.28, -211.30, -950.02, -196.05, -0.112, 0.016, -1.056, 17:11:14.002
139, -810.39, -781.49, -851.99, -75.16, -0.112, 0.016, -1.056, 17:11:14.002
140, -29.32, -1.17, -814.01, -59.18, -0.112, 0.016, -1.056, 17:11:14.003
143, -604.72, -570.27, -709.13, 65.51, -0.112, 0.016, -1.056, 17:11:14.025
144, 193.45, 234.90, -656.69, 72.42, -0.112, 0.016, -1.056, 17:11:14.025
145, 769.66, 795.53, -751.63, -43.17, -0.112, 0.016, -1.056, 17:11:14.025
146, -16.56, 8.18, -798.55, -49.35, -0.112, 0.016, -1.056, 17:11:14.025
149, 563.06, 580.44, -899.84, -177.95, -0.112, 0.016, -1.056, 17:11:14.047
150, -238.50, -220.42, -954.87, -190.84, -0.112, 0.016, -1.056, 17:11:14.047
151, -812.68, -795.10, -851.11, -68.54, -0.112, 0.016, -1.056, 17:11:14.047
152, -25.29, 3.61, -803.61, -59.81, -0.112, 0.016, -1.056, 17:11:14.047
153, 561.52, 579.37, -898.67, -177.35, -0.112, 0.016, -1.056, 17:11:14.069
154, -228.52, -213.64, -937.73, -178.53, -0.112, 0.016, -1.056, 17:11:14.069
155, -815.04, -791.67, -844.29, -57.76, -0.112, 0.016, -1.056, 17:11:14.070
156, -21.18, 4.21, -808.49, -54.31, -0.112, 0.016, -1.056, 17:11:14.070
157, 548.33, 567.25, -915.64, -188.03, -0.112, 0.016, -1.056, 17:11:14.092
158, -246.68, -230.25, -943.76, -189.17, -0.112, 0.016, -1.056, 17:11:14.092
159, -805.38, -779.19, -839.88, -62.94, -0.112, 0.016, -1.056, 17:11:14.093
160, -27.96, 3.25, -803.16, -57.21, -0.112, 0.016, -1.056, 17:11:14.093
161, 566.48, 582.84, -897.94, -172.77, -0.112, 0.016, -1.056, 17:11:14.114
162, -229.65, -214.43, -949.69, -191.53, -0.112, 0.016, -1.056, 17:11:14.114
163, -822.63, -797.94, -842.21, -57.55, -0.112, 0.016, -1.056, 17:11:14.137
164, -9.06, 18.03, -799.33, -58.33, -0.112, 0.016, -1.056, 17:11:14.137
167, -580.43, -547.40, -704.42, 62.88, -0.112, 0.016, -1.056, 17:11:14.137
168, 213.99, 250.37, -662.48, 73.25, -0.112, 0.016, -1.056, 17:11:14.137
169, 780.68, 809.26, -766.40, -50.26, -0.112, 0.016, -1.056, 17:11:14.159
170, -29.14, 5.08, -826.86, -70.55, -0.112, 0.016, -1.056, 17:11:14.159
171, -580.85, -548.48, -703.74, 60.33, -0.112, 0.016, -1.056, 17:11:14.160
172, 218.69, 256.55, -642.31, 85.86, -0.112, 0.016, -1.056, 17:11:14.160
173, 794.55, 824.65, -739.33, -23.47, -0.112, 0.016, -1.056, 17:11:14.182
174, -7.19, 20.68, -790.66, -40.05, -0.112, 0.016, -1.056, 17:11:14.182
175, -578.29, -540.39, -691.40, 83.18, -0.112, 0.016, -1.056, 17:11:14.182
176, 209.07, 243.92, -656.79, 78.46, -0.112, 0.016, -1.056, 17:11:14.183
177, 783.03, 821.17, -762.07, -38.42, -0.112, 0.016, -1.056, 17:11:14.204
178, -14.35, 20.69, -803.48, -46.74, -0.112, 0.016, -1.056, 17:11:14.205
179, -582.35, -546.17, -702.10, 81.63, -0.112, 0.016, -1.056, 17:11:14.205
180, 232.91, 269.07, -657.26, 84.04, -0.112, 0.016, -1.056, 17:11:14.205
185, 807.07, 840.13, -743.25, -31.94, -0.112, 0.016, -1.056, 17:11:14.227
186, 8.35, 42.03, -789.98, -42.43, -0.112, 0.016, -1.056, 17:11:14.227
187, -567.39, -524.89, -697.08, 74.44, -0.112, 0.016, -1.056, 17:11:14.227
188, 231.11, 274.15, -667.86, 67.09, -0.112, 0.016, -1.056, 17:11:14.227
189, 805.99, 837.90, -746.84, -40.01, -0.112, 0.016, -1.056, 17:11:14.249
190, -9.18, 24.78, -793.59, -42.32, -0.112, 0.016, -1.056, 17:11:14.249
191, -561.36, -524.10, -687.55, 71.99, -0.112, 0.016, -1.056, 17:11:14.249
192, 242.86, 283.08, -652.06, 77.94, -0.112, 0.016, -1.056, 17:11:14.250
193, 799.25, 829.75, -754.01, -47.21, -0.112, 0.016, -1.056, 17:11:14.272
194, -8.11, 27.11, -802.92, -62.65, -0.112, 0.016, -1.056, 17:11:14.272
195, -570.16, -530.96, -695.86, 64.64, -0.112, 0.016, -1.056, 17:11:14.272
196, 234.65, 273.15, -660.79, 77.60, -0.112, 0.016, -1.056, 17:11:14.273
197, 793.46, 828.03, -753.17, -34.16, -0.112, 0.016, -1.056, 17:11:14.295
198, 6.58, 41.14, -792.82, -43.76, -0.112, 0.016, -1.056, 17:11:14.295
199, -567.33, -532.41, -702.81, 77.58, -0.112, 0.016, -1.056, 17:11:14.295
200, 229.35, 275.44, -666.07, 82.49, -0.112, 0.016, -1.056, 17:11:14.296
1, -563.61, -521.20, -707.03, 74.04, -0.112, 0.016, -1.056, 17:11:14.317
2, -1135.68, -1081.29, -613.51, 200.69, -0.112, 0.016, -1.056, 17:11:14.317
3, -331.41, -279.98, -576.20, 199.00, -0.112, 0.016, -1.056, 17:11:14.317
4, 232.79, 276.43, -679.16, 69.69, -0.112, 0.016, -1.056, 17:11:14.317
5, -559.89, -518.21, -710.69, 73.89, -0.112, 0.016, -1.056, 17:11:14.339
6, -1125.74, -1076.52, -624.93, 182.22, -0.112, 0.016, -1.056, 17:11:14.339
7, -336.34, -289.44, -585.11, 189.57, -0.112, 0.016, -1.056, 17:11:14.340
8, 221.22, 263.25, -677.98, 66.21, -0.112, 0.016, -1.056, 17:11:14.340
11, 1017.15, 1067.02, -627.30, 75.85, -0.112, 0.016, -1.056, 17:11:14.362
12, 1584.07, 1621.80, -721.43, -45.34, -0.112, 0.016, -1.056, 17:11:14.362
13, 787.34, 822.53, -765.27, -56.31, -0.112, 0.016, -1.056, 17:11:14.362
14, 232.20, 277.06, -657.14, 74.15, -0.112, 0.016, -1.056, 17:11:14.362
15, 1039.39, 1082.63, -622.58, 83.23, -0.112, 0.016, -1.056, 17:11:14.384
16, 1579.09, 1622.10, -725.09, -49.62, -0.112, 0.016, -1.056, 17:11:14.384
17, 785.21, 824.16, -759.12, -38.15, -0.112, 0.016, -1.056, 17:11:14.385
18, 227.63, 273.02, -659.79, 82.31, -0.112, 0.016, -1.056, 17:11:14.385
19, 1040.70, 1083.77, -621.07, 92.23, -0.112, 0.016, -1.056, 17:11:14.407
20, 1600.95, 1635.57, -718.09, -34.98, -0.112, 0.016, -1.056, 17:11:14.407
21, 778.36, 812.24, -785.45, -66.03, -0.112, 0.016, -1.056, 17:11:14.408
22, 225.01, 267.76, -655.00, 102.63, -0.112, 0.016, -1.056, 17:11:14.408
23, 1052.05, 1095.73, -591.86, 116.91, -0.112, 0.016, -1.056, 17:11:14.429
24, 1610.91, 1645.83, -698.96, -10.08, -0.112, 0.016, -1.056, 17:11:14.430
25, 793.58, 830.27, -732.01, -9.95, -0.112, 0.016, -1.056, 17:11:14.430
26, 236.15, 277.28, -636.95, 106.89, -0.112, 0.016, -1.056, 17:11:14.430
29, -576.21, -535.32, -679.07, 93.01, -0.112, 0.016, -1.056, 17:11:14.452
30, -1134.11, -1086.89, -593.47, 203.39, -0.112, 0.016, -1.056, 17:11:14.452
31, -324.05, -273.87, -553.94, 211.90, -0.112, 0.016, -1.056, 17:11:14.452
32, 221.92, 268.85, -651.51, 86.25, -0.112, 0.016, -1.056, 17:11:14.452
33, -569.43, -525.13, -682.84, 92.93, -0.112, 0.016, -1.056, 17:11:14.474
34, -1132.48, -1084.48, -588.15, 212.27, -0.112, 0.016, -1.056, 17:11:14.474
35, -328.09, -278.51, -544.89, 208.97, -0.112, 0.016, -1.056, 17:11:14.497
36, 232.82, 277.57, -640.16, 88.38, -0.112, 0.016, -1.056, 17:11:14.497
37, -562.18, -521.05, -682.66, 88.06, -0.112, 0.016, -1.056, 17:11:14.497
38, -1139.43, -1090.17, -598.70, 194.78, -0.112, 0.016, -1.056, 17:11:14.498
39, -323.88, -275.66, -554.34, 204.97, -0.112, 0.016, -1.056, 17:11:14.519
40, 224.24, 266.96, -654.03, 81.56, -0.112, 0.016, -1.056, 17:11:14.519
41, -579.87, -538.04, -689.89, 85.66, -0.112, 0.016, -1.056, 17:11:14.520
42, -1129.94, -1085.73, -601.64, 194.85, -0.112, 0.016, -1.056, 17:11:14.520
43, -324.92, -277.46, -552.18, 202.85, -0.112, 0.016, -1.056, 17:11:14.542
44, 220.44, 264.29, -648.93, 82.85, -0.112, 0.016, -1.056, 17:11:14.542
47, 1034.14, 1077.27, -615.15, 83.45, -0.112, 0.016, -1.056, 17:11:14.542
48, 1577.93, 1611.28, -723.88, -41.61, -0.112, 0.016, -1.056, 17:11:14.542
49, 776.06, 812.89, -746.87, -34.30, -0.112, 0.016, -1.056, 17:11:14.564
50, 225.25, 270.06, -641.32, 88.44, -0.112, 0.016, -1.056, 17:11:14.565
51, 1032.96, 1077.70, -613.40, 93.69, -0.112, 0.016, -1.056, 17:11:14.565
52, 1581.18, 1614.39, -703.98, -24.36, -0.112, 0.016, -1.056, 17:11:14.565
55, 2390.50, 2419.58, -678.39, -24.78, -0.112, 0.016, -1.056, 17:11:14.587
56, 2942.25, 2971.83, -771.89, -137.87, -0.112, 0.016, -1.056, 17:11:14.587
57, 2123.96, 2150.78, -808.75, -147.33, -0.112, 0.016, -1.056, 17:11:14.587
58, 1582.76, 1615.80, -716.30, -17.71, -0.112, 0.016, -1.056, 17:11:14.587
59, 2400.09, 2435.90, -670.72, -13.46, -0.112, 0.016, -1.056, 17:11:14.610
60, 2949.57, 2982.42, -770.83, -137.17, -0.112, 0.016, -1.056, 17:11:14.610
61, 2116.46, 2144.11, -803.54, -150.73, -0.112, 0.016, -1.056, 17:11:14.610
62, 1579.54, 1613.02, -706.67, -21.04, -0.112, 0.016, -1.056, 17:11:14.611
65, 763.99, 800.01, -750.24, -24.75, -0.112, 0.016, -1.056, 17:11:14.632
66, 232.92, 269.12, -647.14, 107.06, -0.112, 0.016, -1.056, 17:11:14.632
67, 1031.34, 1076.81, -614.85, 95.97, -0.112, 0.016, -1.056, 17:11:14.633
68, 1584.81, 1621.04, -699.22, -18.36, -0.112, 0.016, -1.056, 17:11:14.633
69, 772.52, 799.79, -756.04, -20.78, -0.112, 0.016, -1.056, 17:11:14.654
70, 225.52, 259.74, -651.65, 107.31, -0.112, 0.016, -1.056, 17:11:14.655
71, 1042.26, 1079.39, -611.10, 104.71, -0.112, 0.016, -1.056, 17:11:14.655
72, 1575.98, 1608.55, -723.87, -23.04, -0.112, 0.016, -1.056, 17:11:14.655
73, 753.07, 784.05, -789.91, -61.82, -0.112, 0.016, -1.056, 17:11:14.679
74, 228.81, 271.08, -641.26, 79.55, -0.112, 0.016, -1.056, 17:11:14.679
75, 1034.71, 1077.23, -585.37, 109.91, -0.112, 0.016, -1.056, 17:11:14.679
76, 1589.85, 1622.82, -687.68, -14.68, -0.112, 0.016, -1.056, 17:11:14.679
77, 783.62, 814.28, -711.31, -17.01, -0.112, 0.016, -1.056, 17:11:14.699
78, 255.54, 294.25, -606.18, 98.55, -0.112, 0.016, -1.056, 17:11:14.699
79, 1060.77, 1102.95, -558.96, 105.96, -0.112, 0.016, -1.056, 17:11:14.699
80, 1595.94, 1627.22, -685.55, -24.20, -0.112, 0.016, -1.056, 17:11:14.700
83, 2399.12, 2432.72, -659.71, -35.75, -0.112, 0.016, -1.056, 17:11:14.722
84, 2938.48, 2966.24, -756.89, -156.71, -0.112, 0.016, -1.056, 17:11:14.722
85, 2116.23, 2141.53, -802.73, -160.30, -0.112, 0.016, -1.056, 17:11:14.722
86, 1572.24, 1604.83, -722.07, -53.07, -0.112, 0.016, -1.056, 17:11:14.723
87, 2393.06, 2424.04, -685.27, -44.96, -0.112, 0.016, -1.056, 17:11:14.744
88, 2908.16, 2940.60, -794.92, -177.06, -0.112, 0.016, -1.056, 17:11:14.744
89, 2097.14, 2123.02, -831.48, -171.06, -0.112, 0.016, -1.056, 17:11:14.746
90, 1567.34, 1603.01, -733.81, -54.64, -0.112, 0.016, -1.056, 17:11:14.746
91, 2382.60, 2417.18, -693.77, -46.32, -0.112, 0.016, -1.056, 17:11:14.767
92, 2914.74, 2943.45, -789.91, -161.91, -0.112, 0.016, -1.056, 17:11:14.767
93, 2098.69, 2131.42, -838.70, -170.62, -0.112, 0.016, -1.056, 17:11:14.768
94, 1574.84, 1608.87, -719.52, -34.40, -0.112, 0.016, -1.056, 17:11:14.768
95, 2389.17, 2423.40, -685.26, -33.06, -0.112, 0.016, -1.056, 17:11:14.789
96, 2925.55, 2952.88, -791.13, -152.81, -0.112, 0.016, -1.056, 17:11:14.789
97, 2102.11, 2128.14, -821.33, -153.63, -0.112, 0.016, -1.056, 17:11:14.790
98, 1579.26, 1609.99, -720.65, -31.69, -0.112, 0.016, -1.056, 17:11:14.790
101, 736.94, 767.06, -774.31, -46.66, -0.112, 0.016, -1.056, 17:11:14.812
102, 216.50, 251.77, -667.40, 90.60, -0.112, 0.016, -1.056, 17:11:14.812
103, 1035.17, 1071.73, -632.21, 91.65, -0.112, 0.016, -1.056, 17:11:14.813
104, 1569.36, 1596.94, -720.90, -26.03, -0.112, 0.016, -1.056, 17:11:14.813
105, 737.11, 769.07, -773.02, -41.68, -0.112, 0.016, -1.056, 17:11:14.834
106, 211.21, 249.38, -666.16, 90.37, -0.112, 0.016, -1.056, 17:11:14.834
107, 1029.45, 1064.41, -630.44, 91.89, -0.112, 0.016, -1.056, 17:11:14.835
108, 1558.16, 1589.40, -733.01, -33.60, -0.112, 0.016, -1.056, 17:11:14.835
109, 737.04, 769.13, -778.89, -38.29, -0.112, 0.016, -1.056, 17:11:14.857
110, 211.42, 243.70, -671.49, 85.80, -0.112, 0.016, -1.056, 17:11:14.857
111, 1021.93, 1061.03, -639.31, 80.72, -0.112, 0.016, -1.056, 17:11:14.858
112, 1551.70, 1585.37, -747.68, -38.63, -0.112, 0.016, -1.056, 17:11:14.858
113, 741.91, 769.41, -772.39, -32.89, -0.112, 0.016, -1.056, 17:11:14.880
114, 225.65, 261.69, -661.50, 91.81, -0.112, 0.016, -1.056, 17:11:14.880
115, 1030.39, 1059.10, -632.32, 93.02, -0.112, 0.016, -1.056, 17:11:14.880
116, 1556.11, 1586.25, -735.38, -30.75, -0.112, 0.016, -1.056, 17:11:14.880
119, 2377.10, 2414.85, -690.08, -23.59, -0.112, 0.016, -1.056, 17:11:14.902
120, 2914.03, 2942.41, -789.33, -137.57, -0.112, 0.016, -1.056, 17:11:14.902
121, 2079.52, 2103.92, -831.15, -146.24, -0.112, 0.016, -1.056, 17:11:14.902
122, 1554.89, 1587.28, -718.96, -11.37, -0.112, 0.016, -1.056, 17:11:14.902
123, 2379.30, 2412.66, -697.99, -23.83, -0.112, 0.016, -1.056, 17:11:14.924
124, 2895.45, 2920.36, -789.21, -141.17, -0.112, 0.016, -1.056, 17:11:14.924
125, 2071.27, 2099.70, -833.81, -151.25, -0.112, 0.016, -1.056, 17:11:14.925
126, 1554.23, 1588.46, -729.51, -25.31, -0.112, 0.016, -1.056, 17:11:14.925
127, 2374.94, 2410.44, -692.76, -26.63, -0.112, 0.016, -1.056, 17:11:14.947
128, 2904.77, 2932.99, -785.32, -142.74, -0.112, 0.016, -1.056, 17:11:14.949
129, 2086.61, 2112.66, -819.93, -142.91, -0.112, 0.016, -1.056, 17:11:14.949
130, 1561.46, 1586.01, -727.52, -15.83, -0.112, 0.016, -1.056, 17:11:14.949
131, 2383.10, 2418.27, -687.49, -10.31, -0.112, 0.016, -1.056, 17:11:14.969
132, 2905.11, 2938.19, -785.62, -132.18, -0.112, 0.016, -1.056, 17:11:14.969
133, 2067.00, 2098.07, -828.00, -143.30, -0.112, 0.016, -1.056, 17:11:14.969
134, 1561.49, 1594.40, -730.37, -22.06, -0.112, 0.016, -1.056, 17:11:14.970
137, 735.11, 765.24, -776.91, -28.91, -0.112, 0.016, -1.056, 17:11:14.991
138, 214.36, 254.90, -673.52, 87.16, -0.112, 0.016, -1.056, 17:11:14.992
139, 1026.39, 1068.92, -660.35, 69.41, -0.112, 0.016, -1.056, 17:11:14.992
140, 1555.60, 1591.04, -733.85, -61.51, -0.112, 0.016, -1.056, 17:11:14.992
141, 754.61, 789.49, -726.03, -18.79, -0.112, 0.016, -1.056, 17:11:15.014
142, 218.01, 260.60, -654.68, 100.87, -0.112, 0.016, -1.056, 17:11:15.014
143, 1044.08, 1083.51, -617.89, 95.35, -0.112, 0.016, -1.056, 17:11:15.015
144, 1559.33, 1600.98, -714.45, -5.48, -0.112, 0.016, -1.056, 17:11:15.015
145, 745.77, 775.05, -733.92, -0.32, -0.112, 0.016, -1.056, 17:11:15.037
146, 219.57, 259.63, -663.20, 107.25, -0.112, 0.016, -1.056, 17:11:15.037
147, 1052.70, 1088.55, -624.23, 95.37, -0.112, 0.016, -1.056, 17:11:15.038
148, 1555.69, 1597.11, -729.23, -32.91, -0.112, 0.016, -1.056, 17:11:15.038
149, 726.98, 760.43, -766.30, -39.76, -0.112, 0.016, -1.056, 17:11:15.059
150, 219.21, 261.06, -672.07, 93.95, -0.112, 0.016, -1.056, 17:11:15.060
151, 1032.69, 1075.07, -631.64, 90.08, -0.112, 0.016, -1.056, 17:11:15.060
152, 1551.87, 1587.83, -735.52, -38.69, -0.112, 0.016, -1.056, 17:11:15.060
155, 2389.60, 2424.31, -705.21, -37.65, -0.112, 0.016, -1.056, 17:11:15.082
156, 2890.16, 2921.40, -828.80, -181.72, -0.112, 0.016, -1.056, 17:11:15.082
157, 2069.69, 2096.07, -851.61, -176.88, -0.112, 0.016, -1.056, 17:11:15.083
158, 1556.48, 1593.75, -739.48, -40.13, -0.112, 0.016, -1.056, 17:11:15.083
159, 2391.35, 2431.86, -706.13, -37.95, -0.112, 0.016, -1.056, 17:11:15.104
160, 2891.86, 2926.72, -806.64, -162.58, -0.112, 0.016, -1.056, 17:11:15.104
161, 2064.40, 2097.10, -876.31, -193.87, -0.112, 0.016, -1.056, 17:11:15.126
162, 1547.47, 1586.11, -734.25, -25.24, -0.112, 0.016, -1.056, 17:11:15.127
163, 2408.98, 2446.23, -647.66, 13.01, -0.112, 0.016, -1.056, 17:11:15.127
164, 2918.97, 2946.53, -748.13, -97.36, -0.112, 0.016, -1.056, 17:11:15.127
165, 2102.29, 2131.85, -763.64, -67.77, -0.112, 0.016, -1.056, 17:11:15.149
166, 1600.45, 1638.73, -668.21, 58.88, -0.112, 0.016, -1.056, 17:11:15.149
167, 2428.92, 2464.19, -621.57, 55.52, -0.112, 0.016, -1.056, 17:11:15.150
168, 2952.37, 2985.88, -717.90, -80.22, -0.112, 0.016, -1.056, 17:11:15.150
169, 2100.53, 2128.55, -772.92, -113.77, -0.112, 0.016, -1.056, 17:11:15.172
170, 1586.53, 1626.63, -684.68, 8.65, -0.112, 0.016, -1.056, 17:11:15.172
173, 749.11, 793.01, -722.11, -4.53, -0.112, 0.016, -1.056, 17:11:15.173
174, 252.40, 299.95, -624.32, 125.74, -0.112, 0.016, -1.056, 17:11:15.173
175, 1068.97, 1116.86, -592.68, 122.95, -0.112, 0.016, -1.056, 17:11:15.194
176, 1581.93, 1621.77, -698.75, -1.41, -0.112, 0.016, -1.056, 17:11:15.195
177, 746.89, 781.08, -746.79, -16.39, -0.112, 0.016, -1.056, 17:11:15.195
178, 229.28, 276.85, -645.26, 103.38, -0.112, 0.016, -1.056, 17:11:15.195
181, -606.27, -561.63, -690.32, 99.71, -0.112, 0.016, -1.056, 17:11:15.217
182, -1115.36, -1060.01, -580.88, 217.94, -0.112, 0.016, -1.056, 17:11:15.217
183, -278.48, -220.28, -545.73, 224.98, -0.112, 0.016, -1.056, 17:11:15.218
184, 230.64, 278.25, -650.33, 99.38, -0.112, 0.016, -1.056, 17:11:15.218
185, -608.77, -559.05, -691.93, 90.51, -0.112, 0.016, -1.056, 17:11:15.240
186, -1099.53, -1049.05, -579.89, 215.06, -0.112, 0.016, -1.056, 17:11:15.241
187, -291.29, -234.06, -553.90, 212.36, -0.112, 0.016, -1.056, 17:11:15.241
188, 219.91, 264.96, -657.00, 93.90, -0.112, 0.016, -1.056, 17:11:15.241
191, 1039.57, 1092.54, -626.91, 90.75, -0.112, 0.016, -1.056, 17:11:15.285
192, 1567.84, 1613.37, -720.79, -18.08, -0.112, 0.016, -1.056, 17:11:15.285
193, 731.09, 776.12, -738.94, -5.75, -0.112, 0.016, -1.056, 17:11:15.285
194, 218.63, 270.47, -655.14, 99.08, -0.112, 0.016, -1.056, 17:11:15.285
195, 1057.13, 1109.91, -630.06, 83.65, -0.112, 0.016, -1.056, 17:11:15.306
196, 1565.15, 1610.97, -686.81, -1.93, -0.112, 0.016, -1.056, 17:11:15.307
197, 746.59, 787.07, -707.36, 17.95, -0.112, 0.016, -1.056, 17:11:15.329
198, 246.82, 293.14, -625.05, 140.74, -0.112, 0.016, -1.056, 17:11:15.329
199, 1066.64, 1117.08, -581.04, 123.85, -0.112, 0.016, -1.056, 17:11:15.330
200, 1567.11, 1614.39, -683.57, 1.24, -0.112, 0.016, -1.056, 17:11:15.330
0, -494.17, -500.57, -1087.43, -272.07, -0.112, 0.016, -1.056, 17:11:15.352
3, 7.44, -7.07, -1177.83, -394.71, -0.112, 0.016, -1.056, 17:11:15.352
4, -824.70, -839.61, -1213.99, -400.65, -0.112, 0.016, -1.056, 17:11:15.352
7, -312.50, -340.05, -1319.02, -519.51, -0.112, 0.016, -1.056, 17:11:15.374
8, -1160.82, -1181.90, -1360.07, -520.04, -0.112, 0.016, -1.056, 17:11:15.374
11, -650.73, -685.31, -1463.76, -646.65, -0.112, 0.016, -1.056, 17:11:15.375
12, -1470.08, -1504.58, -1488.99, -628.34, -0.112, 0.016, -1.056, 17:11:15.375
13, -1984.86, -2010.83, -1387.17, -517.56, -0.112, 0.016, -1.056, 17:11:15.419
14, -1155.82, -1183.66, -1367.22, -531.16, -0.112, 0.016, -1.056, 17:11:15.419
17, -1645.51, -1672.04, -1265.95, -400.28, -0.112, 0.016, -1.056, 17:11:15.442
18, -807.67, -835.57, -1224.71, -400.36, -0.112, 0.016, -1.056, 17:11:15.442
21, -1300.99, -1315.57, -1137.53, -291.26, -0.112, 0.016, -1.056, 17:11:15.443
22, -470.28, -488.43, -1090.80, -275.88, -0.112, 0.016, -1.056, 17:11:15.443
23, 40.12, 12.53, -1195.84, -404.49, -0.112, 0.016, -1.056, 17:11:15.464
24, -809.70, -832.19, -1234.67, -403.33, -0.112, 0.016, -1.056, 17:11:15.464
25, -1295.03, -1311.97, -1131.70, -280.92, -0.112, 0.016, -1.056, 17:11:15.487
26, -461.45, -477.88, -1093.81, -289.46, -0.112, 0.016, -1.056, 17:11:15.487
27, 38.15, 16.55, -1194.06, -402.62, -0.112, 0.016, -1.056, 17:11:15.487
28, -811.68, -833.10, -1236.16, -406.94, -0.112, 0.016, -1.056, 17:11:15.488
29, -1293.55, -1309.02, -1121.02, -278.59, -0.112, 0.016, -1.056, 17:11:15.509
30, -447.97, -470.35, -1088.27, -282.73, -0.112, 0.016, -1.056, 17:11:15.510
35, 33.80, 8.49, -1191.78, -404.02, -0.112, 0.016, -1.056, 17:11:15.510
36, -824.58, -854.46, -1249.23, -415.69, -0.112, 0.016, -1.056, 17:11:15.510
39, -326.66, -368.60, -1357.33, -536.69, -0.112, 0.016, -1.056, 17:11:15.533
40, -1183.03, -1220.40, -1389.45, -532.98, -0.112, 0.016, -1.056, 17:11:15.533
43, -692.23, -735.15, -1479.14, -660.95, -0.112, 0.016, -1.056, 17:11:15.533
44, -1532.49, -1576.41, -1515.61, -661.42, -0.112, 0.016, -1.056, 17:11:15.533
47, -1040.68, -1093.53, -1607.70, -783.91, -0.112, 0.016, -1.056, 17:11:15.554
48, -1881.09, -1940.77, -1641.53, -775.77, -0.112, 0.016, -1.056, 17:11:15.554
49, -2380.38, -2426.47, -1543.06, -658.49, -0.112, 0.016, -1.056, 17:11:15.555
50, -1530.15, -1582.42, -1528.75, -675.20, -0.112, 0.016, -1.056, 17:11:15.555
53, -2005.29, -2050.04, -1436.49, -562.07, -0.112, 0.016, -1.056, 17:11:15.577
54, -1167.66, -1216.26, -1409.89, -570.07, -0.112, 0.016, -1.056, 17:11:15.577
55, -673.70, -724.54, -1514.07, -694.42, -0.112, 0.016, -1.056, 17:11:15.599
56, -1523.50, -1572.28, -1542.47, -677.33, -0.112, 0.016, -1.056, 17:11:15.599
57, -1992.59, -2036.27, -1450.17, -558.32, -0.112, 0.016, -1.056, 17:11:15.601
58, -1183.52, -1225.84, -1414.58, -574.26, -0.112, 0.016, -1.056, 17:11:15.601
59, -675.18, -728.13, -1513.21, -704.00, -0.112, 0.016, -1.056, 17:11:15.644
60, -1531.80, -1579.36, -1533.95, -691.86, -0.112, 0.016, -1.056, 17:11:15.644
61, -2016.31, -2060.68, -1442.88, -573.73, -0.112, 0.016, -1.056, 17:11:15.645
62, -1166.24, -1213.70, -1405.65, -571.63, -0.112, 0.016, -1.056, 17:11:15.645
63, -686.82, -734.68, -1512.62, -702.37, -0.112, 0.016, -1.056, 17:11:15.667
64, -1533.66, -1588.83, -1540.87, -692.85, -0.112, 0.016, -1.056, 17:11:15.667
65, -2015.97, -2057.69, -1447.64, -581.38, -0.112, 0.016, -1.056, 17:11:15.667
66, -1156.13, -1202.99, -1417.11, -579.37, -0.112, 0.016, -1.056, 17:11:15.667
67, -692.72, -739.01, -1512.07, -700.27, -0.112, 0.016, -1.056, 17:11:15.690
68, -1529.57, -1580.06, -1549.43, -701.29, -0.112, 0.016, -1.056, 17:11:15.690
71, -1054.83, -1107.23, -1644.38, -815.49, -0.112, 0.016, -1.056, 17:11:15.691
72, -1898.03, -1952.13, -1674.68, -806.32, -0.112, 0.016, -1.056, 17:11:15.691
75, -1421.95, -1489.09, -1792.75, -943.82, -0.112, 0.016, -1.056, 17:11:15.712
76, -2265.36, -2333.10, -1816.25, -929.65, -0.112, 0.016, -1.056, 17:11:15.712
79, -1773.49, -1845.14, -1909.34, -1037.47, -0.112, 0.016, -1.056, 17:11:15.712
80, -2641.77, -2711.91, -1947.34, -1040.77, -0.112, 0.016, -1.056, 17:11:15.713
83, -2158.78, -2236.85, -2046.65, -1160.37, -0.112, 0.016, -1.056, 17:11:15.735
84, -3016.63, -3097.28, -2082.59, -1161.43, -0.112, 0.016, -1.056, 17:11:15.735
85, -3481.71, -3558.39, -1972.23, -1033.54, -0.112, 0.016, -1.056, 17:11:15.735
86, -2635.26, -2706.44, -1938.39, -1040.31, -0.112, 0.016, -1.056, 17:11:15.735
89, -3095.07, -3162.68, -1822.89, -906.59, -0.112, 0.016, -1.056, 17:11:15.757
90, -2255.39, -2313.20, -1797.29, -921.92, -0.112, 0.016, -1.056, 17:11:15.757
91, -1784.92, -1852.85, -1917.70, -1056.56, -0.112, 0.016, -1.056, 17:11:15.758
92, -2626.95, -2697.41, -1942.57, -1043.62, -0.112, 0.016, -1.056, 17:11:15.758
93, -3101.79, -3168.86, -1853.72, -936.71, -0.112, 0.016, -1.056, 17:11:15.801
94, -2271.08, -2327.75, -1816.90, -941.33, -0.112, 0.016, -1.056, 17:11:15.802
95, -1785.83, -1855.67, -1910.31, -1054.95, -0.112, 0.016, -1.056, 17:11:15.802
96, -2634.80, -2700.20, -1939.21, -1037.87, -0.112, 0.016, -1.056, 17:11:15.802
97, -3097.49, -3159.23, -1846.78, -919.40, -0.112, 0.016, -1.056, 17:11:15.824
98, -2262.62, -2327.85, -1815.75, -930.80, -0.112, 0.016, -1.056, 17:11:15.825
99, -1787.00, -1854.22, -1916.54, -1061.63, -0.112, 0.016, -1.056, 17:11:15.825
100, -2647.66, -2716.95, -1953.05, -1055.65, -0.112, 0.016, -1.056, 17:11:15.825
101, -3108.38, -3170.49, -1840.76, -931.64, -0.112, 0.016, -1.056, 17:11:15.847
102, -2258.60, -2316.76, -1817.63, -936.33, -0.112, 0.016, -1.056, 17:11:15.847
103, -1803.89, -1870.01, -1925.35, -1060.46, -0.112, 0.016, -1.056, 17:11:15.847
104, -2646.10, -2715.06, -1952.13, -1051.49, -0.112, 0.016, -1.056, 17:11:15.848
105, -3103.67, -3164.37, -1841.86, -924.92, -0.112, 0.016, -1.056, 17:11:15.869
106, -2249.91, -2309.70, -1808.09, -921.83, -0.112, 0.016, -1.056, 17:11:15.869
111, -1782.18, -1845.75, -1907.91, -1040.39, -0.112, 0.016, -1.056, 17:11:15.870
112, -2651.14, -2712.76, -1945.24, -1047.11, -0.112, 0.016, -1.056, 17:11:15.870
115, -2173.37, -2242.50, -2038.20, -1160.93, -0.112, 0.016, -1.056, 17:11:15.892
116, -3028.98, -3103.35, -2072.27, -1151.59, -0.112, 0.016, -1.056, 17:11:15.892
117, -3491.42, -3552.94, -1974.30, -1024.87, -0.112, 0.016, -1.056, 17:11:15.892
118, -2655.35, -2715.95, -1971.02, -1049.83, -0.112, 0.016, -1.056, 17:11:15.892
119, -2190.20, -2259.40, -2061.78, -1175.27, -0.112, 0.016, -1.056, 17:11:15.914
120, -3013.67, -3086.79, -2065.28, -1148.86, -0.112, 0.016, -1.056, 17:11:15.914
121, -3501.01, -3565.73, -1975.00, -1024.63, -0.112, 0.016, -1.056, 17:11:15.914
122, -2645.68, -2706.97, -1947.04, -1050.26, -0.112, 0.016, -1.056, 17:11:15.915
125, -3101.01, -3155.81, -1842.23, -929.56, -0.112, 0.016, -1.056, 17:11:15.937
126, -2229.39, -2286.72, -1797.09, -924.82, -0.112, 0.016, -1.056, 17:11:15.937
127, -1783.78, -1848.07, -1913.30, -1057.13, -0.112, 0.016, -1.056, 17:11:15.937
128, -2638.00, -2706.23, -1933.80, -1043.50, -0.112, 0.016, -1.056, 17:11:15.937
129, -3073.80, -3135.41, -1823.86, -926.46, -0.112, 0.016, -1.056, 17:11:15.959
130, -2244.63, -2300.75, -1798.32, -940.99, -0.112, 0.016, -1.056, 17:11:15.959
131, -1783.06, -1843.42, -1908.88, -1059.45, -0.112, 0.016, -1.056, 17:11:15.960
132, -2627.17, -2690.35, -1941.68, -1047.40, -0.112, 0.016, -1.056, 17:11:15.960
133, -3089.66, -3150.03, -1828.65, -929.74, -0.112, 0.016, -1.056, 17:11:15.982
134, -2247.85, -2307.37, -1803.29, -938.51, -0.112, 0.016, -1.056, 17:11:15.982
135, -1793.32, -1858.73, -1922.25, -1056.68, -0.112, 0.016, -1.056, 17:11:15.982
136, -2643.93, -2709.50, -1944.49, -1048.91, -0.112, 0.016, -1.056, 17:11:15.983
137, -3094.06, -3153.69, -1828.07, -919.38, -0.112, 0.016, -1.056, 17:11:16.004
138, -2229.97, -2293.38, -1795.88, -928.42, -0.112, 0.016, -1.056, 17:11:16.004
139, -1791.42, -1852.42, -1912.67, -1060.58, -0.112, 0.016, -1.056, 17:11:16.005
140, -2635.38, -2699.48, -1937.76, -1043.48, -0.112, 0.016, -1.056, 17:11:16.005
143, -2171.25, -2240.46, -2040.93, -1157.88, -0.112, 0.016, -1.056, 17:11:16.027
144, -3026.81, -3100.34, -2066.18, -1151.71, -0.112, 0.016, -1.056, 17:11:16.027
145, -3478.75, -3548.10, -1951.80, -1033.33, -0.112, 0.016, -1.056, 17:11:16.028
146, -2637.01, -2698.95, -1931.94, -1043.92, -0.112, 0.016, -1.056, 17:11:16.028
147, -2169.87, -2240.41, -2031.86, -1156.84, -0.112, 0.016, -1.056, 17:11:16.049
148, -3036.01, -3101.46, -2051.62, -1145.84, -0.112, 0.016, -1.056, 17:11:16.050
149, -3482.39, -3545.56, -1960.56, -1023.87, -0.112, 0.016, -1.056, 17:11:16.050
150, -2631.93, -2697.37, -1933.54, -1030.52, -0.112, 0.016, -1.056, 17:11:16.050
151, -2169.47, -2237.73, -2026.50, -1158.41, -0.112, 0.016, -1.056, 17:11:16.072
152, -3034.04, -3102.16, -2052.40, -1153.38, -0.112, 0.016, -1.056, 17:11:16.073
153, -3476.24, -3540.97, -1941.76, -1022.10, -0.112, 0.016, -1.056, 17:11:16.073
154, -2621.08, -2688.12, -1924.62, -1029.80, -0.112, 0.016, -1.056, 17:11:16.073
155, -2172.27, -2239.32, -2029.08, -1158.85, -0.112, 0.016, -1.056, 17:11:16.094
156, -3033.73, -3105.52, -2061.06, -1158.72, -0.112, 0.016, -1.056, 17:11:16.094
157, -3485.63, -3550.24, -1958.92, -1030.72, -0.112, 0.016, -1.056, 17:11:16.095
158, -2625.60, -2692.00, -1931.87, -1035.69, -0.112, 0.016, -1.056, 17:11:16.095
0, 0.00, 0.00, 0.00, 0.00, -0.112, 0.016, -1.056, 17:11:16.117
1, 0.00, 121.72, -29.61, -211.14, -0.112, 0.016, -1.056, 17:11:16.140
2, 0.00, 130.37, -135.84, -331.70, -0.112, 0.016, -1.056, 17:11:16.140
3, 0.00, -821.05, -111.67, -260.12, -0.112, 0.016, -1.056, 17:11:16.140
4, 0.00, -797.57, -3.95, -153.10, -0.112, 0.016, -1.056, 17:11:16.140
5, 0.00, 129.91, -14.05, -205.32, -0.112, 0.016, -1.056, 17:11:16.184
6, 0.00, 144.86, -135.38, -320.60, -0.112, 0.016, -1.056, 17:11:16.184
7, 0.00, -815.85, -91.71, -249.12, -0.112, 0.016, -1.056, 17:11:16.184
8, 0.00, -804.56, 8.30, -159.60, -0.112, 0.016, -1.056, 17:11:16.185
9, 0.00, 124.64, -15.83, -214.68, -0.112, 0.016, -1.056, 17:11:16.206
10, 0.00, 132.80, -150.60, -337.35, -0.112, 0.016, -1.056, 17:11:16.207
13, 0.00, 1064.76, -161.32, -409.55, -0.112, 0.016, -1.056, 17:11:16.207
14, 0.00, 1072.43, -263.16, -512.69, -0.112, 0.016, -1.056, 17:11:16.207
17, 0.00, 2003.61, -281.00, -566.92, -0.112, 0.016, -1.056, 17:11:16.229
18, 0.00, 2016.20, -401.70, -683.71, -0.112, 0.016, -1.056, 17:11:16.229
19, 0.00, 1039.67, -368.63, -617.52, -0.112, 0.016, -1.056, 17:11:16.230
20, 0.00, 1068.89, -277.63, -508.73, -0.112, 0.016, -1.056, 17:11:16.230
21, 0.00, 1992.33, -297.59, -574.83, -0.112, 0.016, -1.056, 17:11:16.251
22, 0.00, 1997.63, -411.13, -689.01, -0.112, 0.016, -1.056, 17:11:16.252
25, 0.00, 2919.41, -431.44, -744.55, -0.112, 0.016, -1.056, 17:11:16.274
26, 0.00, 2921.30, -553.00, -864.20, -0.112, 0.016, -1.056, 17:11:16.274
31, 0.00, 1960.53, -520.55, -792.83, -0.112, 0.016, -1.056, 17:11:16.275
32, 0.00, 1999.92, -401.95, -686.56, -0.112, 0.016, -1.056, 17:11:16.275
33, 0.00, 2912.25, -428.11, -747.07, -0.112, 0.016, -1.056, 17:11:16.296
34, 0.00, 2918.97, -547.18, -866.03, -0.112, 0.016, -1.056, 17:11:16.296
35, 0.00, 1944.82, -544.00, -809.49, -0.112, 0.016, -1.056, 17:11:16.319
36, 0.00, 1982.82, -436.15, -718.04, -0.112, 0.016, -1.056, 17:11:16.319
37, 0.00, 2912.30, -430.69, -772.50, -0.112, 0.016, -1.056, 17:11:16.320
38, 0.00, 2926.53, -511.32, -850.45, -0.112, 0.016, -1.056, 17:11:16.320
39, 0.00, 1971.75, -480.30, -771.72, -0.112, 0.016, -1.056, 17:11:16.342
40, 0.00, 2032.56, -354.69, -660.31, -0.112, 0.016, -1.056, 17:11:16.342
41, 0.00, 2936.68, -387.81, -731.11, -0.112, 0.016, -1.056, 17:11:16.343
42, 0.00, 2951.10, -483.86, -834.01, -0.112, 0.016, -1.056, 17:11:16.344
43, 0.00, 1981.37, -485.38, -776.96, -0.112, 0.016, -1.056, 17:11:16.365
44, 0.00, 2018.85, -358.68, -665.24, -0.112, 0.016, -1.056, 17:11:16.366
49, 0.00, 2934.39, -393.25, -729.62, -0.112, 0.016, -1.056, 17:11:16.366
50, 0.00, 2925.61, -513.33, -842.58, -0.112, 0.016, -1.056, 17:11:16.366
51, 0.00, 1968.30, -481.41, -768.10, -0.112, 0.016, -1.056, 17:11:16.387
52, 0.00, 2005.68, -375.01, -676.34, -0.112, 0.016, -1.056, 17:11:16.387
53, 0.00, 2931.79, -390.85, -737.96, -0.112, 0.016, -1.056, 17:11:16.387
54, 0.00, 2932.78, -503.50, -831.84, -0.112, 0.016, -1.056, 17:11:16.387
57, 0.00, 3850.11, -535.10, -896.15, -0.112, 0.016, -1.056, 17:11:16.432
58, 0.00, 3847.30, -645.88, -1008.16, -0.112, 0.016, -1.056, 17:11:16.432
59, 0.00, 2881.47, -619.00, -945.26, -0.112, 0.016, -1.056, 17:11:16.432
60, 0.00, 2922.74, -507.11, -843.20, -0.112, 0.016, -1.056, 17:11:16.432
61, 0.00, 3844.45, -536.89, -897.83, -0.112, 0.016, -1.056, 17:11:16.477
62, 0.00, 3839.56, -640.10, -1003.00, -0.112, 0.016, -1.056, 17:11:16.477
63, 0.00, 2880.57, -608.94, -937.27, -0.112, 0.016, -1.056, 17:11:16.478
64, 0.00, 2917.40, -515.19, -839.24, -0.112, 0.016, -1.056, 17:11:16.478
67, 0.00, 1960.73, -482.14, -766.58, -0.112, 0.016, -1.056, 17:11:16.499
68, 0.00, 2012.18, -375.55, -658.04, -0.112, 0.016, -1.056, 17:11:16.499
69, 0.00, 2936.41, -401.50, -726.84, -0.112, 0.016, -1.056, 17:11:16.500
70, 0.00, 2928.37, -511.55, -831.69, -0.112, 0.016, -1.056, 17:11:16.500
71, 0.00, 1964.28, -505.94, -768.70, -0.112, 0.016, -1.056, 17:11:16.522
72, 0.00, 1999.29, -387.78, -667.84, -0.112, 0.016, -1.056, 17:11:16.522
75, 0.00, 1042.84, -357.33, -587.07, -0.112, 0.016, -1.056, 17:11:16.523
76, 0.00, 1090.46, -252.66, -483.05, -0.112, 0.016, -1.056, 17:11:16.523
79, 0.00, 132.11, -224.16, -405.47, -0.112, 0.016, -1.056, 17:11:16.544
80, 0.00, 186.82, -116.99, -310.73, -0.112, 0.016, -1.056, 17:11:16.544
85, 0.00, 1109.85, -144.29, -377.15, -0.112, 0.016, -1.056, 17:11:16.545
86, 0.00, 1086.07, -269.32, -492.71, -0.112, 0.016, -1.056, 17:11:16.545
89, 0.00, 2016.02, -292.02, -553.36, -0.112, 0.016, -1.056, 17:11:16.567
90, 0.00, 1997.10, -408.26, -659.17, -0.112, 0.016, -1.056, 17:11:16.567
91, 0.00, 1042.78, -361.80, -578.84, -0.112, 0.016, -1.056, 17:11:16.567
92, 0.00, 1094.28, -269.58, -485.99, -0.112, 0.016, -1.056, 17:11:16.568
93, 0.00, 2016.67, -291.14, -549.50, -0.112, 0.016, -1.056, 17:11:16.589
94, 0.00, 2002.08, -401.68, -666.85, -0.112, 0.016, -1.056, 17:11:16.590
95, 0.00, 1032.04, -372.38, -594.91, -0.112, 0.016, -1.056, 17:11:16.590
96, 0.00, 1105.78, -249.29, -481.90, -0.112, 0.016, -1.056, 17:11:16.590
97, 0.00, 2012.71, -288.33, -551.08, -0.112, 0.016, -1.056, 17:11:16.612
98, 0.00, 1994.69, -402.02, -659.02, -0.112, 0.016, -1.056, 17:11:16.612
99, 0.00, 1031.75, -378.35, -586.56, -0.112, 0.016, -1.056, 17:11:16.613
100, 0.00, 1103.00, -267.34, -481.77, -0.112, 0.016, -1.056, 17:11:16.613
103, 0.00, 139.23, -234.82, -419.46, -0.112, 0.016, -1.056, 17:11:16.634
104, 0.00, 197.19, -141.11, -319.67, -0.112, 0.016, -1.056, 17:11:16.634
105, 0.00, 1113.38, -175.70, -406.95, -0.112, 0.016, -1.056, 17:11:16.634
106, 0.00, 1070.05, -327.18, -517.82, -0.112, 0.016, -1.056, 17:11:16.635
107, 0.00, 118.81, -249.44, -423.41, -0.112, 0.016, -1.056, 17:11:16.657
108, 0.00, 203.34, -123.14, -304.25, -0.112, 0.016, -1.056, 17:11:16.657
109, 0.00, 1114.15, -174.44, -388.55, -0.112, 0.016, -1.056, 17:11:16.657
110, 0.00, 1103.69, -266.53, -478.74, -0.112, 0.016, -1.056, 17:11:16.657
111, 0.00, 139.21, -238.57, -414.13, -0.112, 0.016, -1.056, 17:11:16.679
112, 0.00, 198.79, -136.45, -326.69, -0.112, 0.016, -1.056, 17:11:16.679
113, 0.00, 1112.91, -164.81, -395.20, -0.112, 0.016, -1.056, 17:11:16.680
114, 0.00, 1096.20, -284.33, -498.06, -0.112, 0.016, -1.056, 17:11:16.680
115, 0.00, 146.79, -247.90, -426.03, -0.112, 0.016, -1.056, 17:11:16.702
116, 0.00, 212.52, -131.82, -316.92, -0.112, 0.016, -1.056, 17:11:16.703
117, 0.00, 1109.29, -165.95, -382.12, -0.112, 0.016, -1.056, 17:11:16.703
118, 0.00, 1095.19, -273.45, -490.00, -0.112, 0.016, -1.056, 17:11:16.703
121, 0.00, 2017.83, -293.60, -550.49, -0.112, 0.016, -1.056, 17:11:16.724
122, 0.00, 1986.46, -409.22, -660.38, -0.112, 0.016, -1.056, 17:11:16.725
123, 0.00, 1030.36, -377.42, -585.40, -0.112, 0.016, -1.056, 17:11:16.725
124, 0.00, 1096.70, -282.55, -497.08, -0.112, 0.016, -1.056, 17:11:16.725
125, 0.00, 2014.66, -307.57, -554.79, -0.112, 0.016, -1.056, 17:11:16.746
126, 0.00, 1981.69, -414.18, -664.72, -0.112, 0.016, -1.056, 17:11:16.747
127, 0.00, 1023.31, -391.77, -591.73, -0.112, 0.016, -1.056, 17:11:16.747
128, 0.00, 1098.49, -270.35, -487.52, -0.112, 0.016, -1.056, 17:11:16.747
129, 0.00, 2018.61, -295.23, -551.42, -0.112, 0.016, -1.056, 17:11:16.769
130, 0.00, 1983.92, -410.78, -668.21, -0.112, 0.016, -1.056, 17:11:16.769
131, 0.00, 1021.95, -373.83, -588.53, -0.112, 0.016, -1.056, 17:11:16.792
132, 0.00, 1097.92, -281.56, -486.21, -0.112, 0.016, -1.056, 17:11:16.792
133, 0.00, 2028.60, -286.36, -539.34, -0.112, 0.016, -1.056, 17:11:16.792
134, 0.00, 1988.69, -397.19, -649.39, -0.112, 0.016, -1.056, 17:11:16.793
135, 0.00, 1025.84, -368.31, -582.73, -0.112, 0.016, -1.056, 17:11:16.814
136, 0.00, 1109.97, -259.64, -476.41, -0.112, 0.016, -1.056, 17:11:16.814
139, 0.00, 159.01, -223.20, -395.16, -0.112, 0.016, -1.056, 17:11:16.815
140, 0.00, 236.32, -121.08, -292.85, -0.112, 0.016, -1.056, 17:11:16.815
141, 0.00, 1163.24, -130.22, -352.36, -0.112, 0.016, -1.056, 17:11:16.836
142, 0.00, 1109.97, -254.13, -474.59, -0.112, 0.016, -1.056, 17:11:16.837
143, 0.00, 157.00, -218.86, -394.13, -0.112, 0.016, -1.056, 17:11:16.837
144, 0.00, 237.73, -120.21, -296.13, -0.112, 0.016, -1.056, 17:11:16.837
145, 0.00, 1154.21, -140.21, -365.78, -0.112, 0.016, -1.056, 17:11:16.859
146, 0.00, 1108.47, -253.80, -469.76, -0.112, 0.016, -1.056, 17:11:16.859
147, 0.00, 147.25, -230.21, -406.56, -0.112, 0.016, -1.056, 17:11:16.860
148, 0.00, 217.49, -141.21, -322.18, -0.112, 0.016, -1.056, 17:11:16.860
151, 0.00, -738.19, -118.06, -242.70, -0.112, 0.016, -1.056, 17:11:16.882
152, 0.00, -664.33, -11.43, -150.17, -0.112, 0.016, -1.056, 17:11:16.883
153, 0.00, 260.23, -25.36, -215.67, -0.112, 0.016, -1.056, 17:11:16.883
154, 0.00, 227.84, -134.02, -314.93, -0.112, 0.016, -1.056, 17:11:16.884
157, 0.00, 1158.55, -153.04, -374.35, -0.112, 0.016, -1.056, 17:11:16.904
158, 0.00, 1113.02, -272.11, -488.06, -0.112, 0.016, -1.056, 17:11:16.904
159, 0.00, 156.89, -226.50, -410.42, -0.112, 0.016, -1.056, 17:11:16.905
160, 0.00, 234.13, -131.73, -311.06, -0.112, 0.016, -1.056, 17:11:16.905
161, 0.00, 1158.22, -159.93, -375.92, -0.112, 0.016, -1.056, 17:11:16.950
162, 0.00, 1105.22, -276.51, -498.64, -0.112, 0.016, -1.056, 17:11:16.950
163, 0.00, 142.09, -231.57, -418.01, -0.112, 0.016, -1.056, 17:11:16.950
164, 0.00, 228.39, -133.47, -317.86, -0.112, 0.016, -1.056, 17:11:16.950
165, 0.00, 1154.68, -166.57, -383.08, -0.112, 0.016, -1.056, 17:11:16.971
166, 0.00, 1112.75, -280.46, -493.23, -0.112, 0.016, -1.056, 17:11:16.972
167, 0.00, 141.09, -247.46, -421.66, -0.112, 0.016, -1.056, 17:11:16.994
168, 0.00, 233.71, -139.56, -324.99, -0.112, 0.016, -1.056, 17:11:16.994
169, 0.00, 1149.32, -171.67, -389.85, -0.112, 0.016, -1.056, 17:11:16.995
170, 0.00, 1107.27, -270.29, -490.22, -0.112, 0.016, -1.056, 17:11:16.995
171, 0.00, 141.43, -240.48, -415.39, -0.112, 0.016, -1.056, 17:11:17.017
172, 0.00, 236.02, -138.75, -324.21, -0.112, 0.016, -1.056, 17:11:17.017
175, 0.00, -727.77, -112.30, -249.57, -0.112, 0.016, -1.056, 17:11:17.017
176, 0.00, -631.94, -3.76, -144.54, -0.112, 0.016, -1.056, 17:11:17.017
179, 0.00, -1602.22, 39.53, -64.56, -0.112, 0.016, -1.056, 17:11:17.039
180, 0.00, -1508.27, 136.26, 42.29, -0.112, 0.016, -1.056, 17:11:17.039
183, 0.00, -2476.82, 163.45, 108.48, -0.112, 0.016, -1.056, 17:11:17.040
184, 0.00, -2371.73, 265.95, 204.69, -0.112, 0.016, -1.056, 17:11:17.040
185, 0.00, -1461.53, 240.24, 141.42, -0.112, 0.016, -1.056, 17:11:17.064
186, 0.00, -1510.04, 130.68, 31.66, -0.112, 0.016, -1.056, 17:11:17.065
187, 0.00, -2470.94, 161.16, 113.01, -0.112, 0.016, -1.056, 17:11:17.066
188, 0.00, -2364.36, 277.35, 215.58, -0.112, 0.016, -1.056, 17:11:17.066
193, 0.00, -1470.26, 214.04, 139.76, -0.112, 0.016, -1.056, 17:11:17.086
194, 0.00, -1517.30, 134.58, 61.27, -0.112, 0.016, -1.056, 17:11:17.086
195, 0.00, -2475.16, 191.66, 154.59, -0.112, 0.016, -1.056, 17:11:17.087
196, 0.00, -2370.69, 287.80, 251.21, -0.112, 0.016, -1.056, 17:11:17.087
197, 0.00, -1462.49, 247.87, 189.01, -0.112, 0.016, -1.056, 17:11:17.108
198, 0.00, -1521.75, 118.95, 54.63, -0.112, 0.016, -1.056, 17:11:17.108
199, 0.00, -2482.60, 155.81, 137.19, -0.112, 0.016, -1.056, 17:11:17.108
200, 0.00, -2387.34, 251.53, 237.34, -0.112, 0.016, -1.056, 17:11:17.108
1, 0.00, -2436.52, 149.39, 138.34, -0.112, 0.016, -1.056, 17:11:17.129
2, 0.00, -3397.10, 171.20, 207.51, -0.112, 0.016, -1.056, 17:11:17.129
3, 0.00, -3311.64, 276.36, 304.92, -0.112, 0.016, -1.056, 17:11:17.130
4, 0.00, -2385.24, 256.38, 233.68, -0.112, 0.016, -1.056, 17:11:17.130
5, 0.00, -2443.87, 138.08, 114.83, -0.112, 0.016, -1.056, 17:11:17.152
6, 0.00, -3400.69, 182.52, 197.47, -0.112, 0.016, -1.056, 17:11:17.152
7, 0.00, -3298.59, 282.52, 299.85, -0.112, 0.016, -1.056, 17:11:17.152
8, 0.00, -2385.46, 237.69, 223.01, -0.112, 0.016, -1.056, 17:11:17.152
9, 0.00, -2443.00, 135.88, 117.82, -0.112, 0.016, -1.056, 17:11:17.174
10, 0.00, -3404.52, 181.05, 192.15, -0.112, 0.016, -1.056, 17:11:17.174
11, 0.00, -3314.88, 279.81, 289.22, -0.112, 0.016, -1.056, 17:11:17.174
12, 0.00, -2385.89, 248.02, 219.94, -0.112, 0.016, -1.056, 17:11:17.175
13, 0.00, -2438.79, 143.74, 119.70, -0.112, 0.016, -1.056, 17:11:17.197
14, 0.00, -3408.23, 167.04, 192.20, -0.112, 0.016, -1.056, 17:11:17.197
15, 0.00, -3307.82, 278.97, 288.12, -0.112, 0.016, -1.056, 17:11:17.197
16, 0.00, -2385.12, 254.47, 224.77, -0.112, 0.016, -1.056, 17:11:17.197
19, 0.00, -2272.59, 356.89, 327.43, -0.112, 0.016, -1.056, 17:11:17.219
20, 0.00, -1355.89, 327.96, 247.87, -0.112, 0.016, -1.056, 17:11:17.219
21, 0.00, -1424.47, 218.61, 141.03, -0.112, 0.016, -1.056, 17:11:17.220
22, 0.00, -2394.54, 234.47, 220.06, -0.112, 0.016, -1.056, 17:11:17.220
23, 0.00, -2271.67, 361.70, 325.88, -0.112, 0.016, -1.056, 17:11:17.242
24, 0.00, -1364.02, 331.09, 249.20, -0.112, 0.016, -1.056, 17:11:17.242
25, 0.00, -1428.89, 217.73, 148.33, -0.112, 0.016, -1.056, 17:11:17.265
26, 0.00, -2392.27, 246.26, 227.95, -0.112, 0.016, -1.056, 17:11:17.265
0, 0.00, 0.00, 0.00, 0.00, -0.112, 0.016, -1.056, 17:11:17.309
1, 0.00, 0.00, -143.23, -304.60, -0.112, 0.016, -1.056, 17:11:17.310
2, 0.00, 0.00, -49.56, -178.34, -0.112, 0.016, -1.056, 17:11:17.310
3, 0.00, 0.00, -3.47, -165.02, -0.112, 0.016, -1.056, 17:11:17.332
4, 0.00, 0.00, -90.89, -288.54, -0.112, 0.016, -1.056, 17:11:17.332
5, 0.00, 0.00, -133.83, -296.19, -0.112, 0.016, -1.056, 17:11:17.332
6, 0.00, 0.00, -55.09, -186.31, -0.112, 0.016, -1.056, 17:11:17.332
7, 0.00, 0.00, 10.59, -161.14, -0.112, 0.016, -1.056, 17:11:17.355
8, 0.00, 0.00, -98.51, -309.80, -0.112, 0.016, -1.056, 17:11:17.355
9, 0.00, 0.00, -137.78, -310.67, -0.112, 0.016, -1.056, 17:11:17.355
10, 0.00, 0.00, -50.17, -198.95, -0.112, 0.016, -1.056, 17:11:17.356
13, 0.00, 0.00, -109.50, -225.02, -0.112, 0.016, -1.056, 17:11:17.377
14, 0.00, 0.00, -2.78, -94.10, -0.112, 0.016, -1.056, 17:11:17.377
21, 0.00, 0.00, -40.11, -97.46, -0.112, 0.016, -1.056, 17:11:17.378
22, 0.00, 0.00, 51.17, 31.26, -0.112, 0.016, -1.056, 17:11:17.378
25, 0.00, 0.00, 9.30, 13.67, -0.112, 0.016, -1.056, 17:11:17.399
26, 0.00, 0.00, 97.59, 136.86, -0.112, 0.016, -1.056, 17:11:17.399
27, 0.00, 0.00, 123.97, 130.06, -0.112, 0.016, -1.056, 17:11:17.399
28, 0.00, 0.00, 34.60, 5.34, -0.112, 0.016, -1.056, 17:11:17.399
31, 0.00, 0.00, 72.43, 6.27, -0.112, 0.016, -1.056, 17:11:17.421
32, 0.00, 0.00, -28.00, -119.89, -0.112, 0.016, -1.056, 17:11:17.422
33, 0.00, 0.00, -78.73, -141.99, -0.112, 0.016, -1.056, 17:11:17.422
34, 0.00, 0.00, 24.37, -4.55, -0.112, 0.016, -1.056, 17:11:17.422
35, 0.00, 0.00, 65.52, 2.26, -0.112, 0.016, -1.056, 17:11:17.444
36, 0.00, 0.00, -25.91, -114.46, -0.112, 0.016, -1.056, 17:11:17.445
37, 0.00, 0.00, -68.66, -123.86, -0.112, 0.016, -1.056, 17:11:17.445
38, 0.00, 0.00, 22.91, -8.43, -0.112, 0.016, -1.056, 17:11:17.445
39, 0.00, 0.00, 69.25, 8.98, -0.112, 0.016, -1.056, 17:11:17.466
40, 0.00, 0.00, -27.13, -114.48, -0.112, 0.016, -1.056, 17:11:17.466
41, 0.00, 0.00, -84.51, -137.55, -0.112, 0.016, -1.056, 17:11:17.467
42, 0.00, 0.00, 23.15, -7.42, -0.112, 0.016, -1.056, 17:11:17.467
43, 0.00, 0.00, 81.42, 6.54, -0.112, 0.016, -1.056, 17:11:17.489
44, 0.00, 0.00, -29.01, -113.43, -0.112, 0.016, -1.056, 17:11:17.489
45, 0.00, 0.00, -65.07, -120.53, -0.112, 0.016, -1.056, 17:11:17.490
46, 0.00, 0.00, 36.29, 3.52, -0.112, 0.016, -1.056, 17:11:17.490
49, 0.00, 0.00, -12.58, -16.35, -0.112, 0.016, -1.056, 17:11:17.512
50, 0.00, 0.00, 80.97, 108.38, -0.112, 0.016, -1.056, 17:11:17.512
51, 0.00, 0.00, 137.50, 122.97, -0.112, 0.016, -1.056, 17:11:17.512
52, 0.00, 0.00, 45.19, 9.00, -0.112, 0.016, -1.056, 17:11:17.512
53, 0.00, 0.00, -13.33, -13.79, -0.112, 0.016, -1.056, 17:11:17.534
54, 0.00, 0.00, 83.21, 111.75, -0.112, 0.016, -1.056, 17:11:17.534
55, 0.00, 0.00, 124.26, 121.23, -0.112, 0.016, -1.056, 17:11:17.535
56, 0.00, 0.00, 30.38, 1.44, -0.112, 0.016, -1.056, 17:11:17.535
57, 0.00, 0.00, -18.35, -12.41, -0.112, 0.016, -1.056, 17:11:17.557
58, 0.00, 0.00, 91.08, 111.21, -0.112, 0.016, -1.056, 17:11:17.557
59, 0.00, 0.00, 134.08, 130.17, -0.112, 0.016, -1.056, 17:11:17.558
60, 0.00, 0.00, 18.57, -10.72, -0.112, 0.016, -1.056, 17:11:17.558
61, 0.00, 0.00, -15.31, -15.66, -0.112, 0.016, -1.056, 17:11:17.579
62, 0.00, 0.00, 87.20, 117.02, -0.112, 0.016, -1.056, 17:11:17.579
63, 0.00, 0.00, 132.04, 127.25, -0.112, 0.016, -1.056, 17:11:17.580
64, 0.00, 0.00, 37.98, 8.07, -0.112, 0.016, -1.056, 17:11:17.581
67, 0.00, 0.00, 83.30, 2.63, -0.112, 0.016, -1.056, 17:11:17.602
68, 0.00, 0.00, -15.44, -113.76, -0.112, 0.016, -1.056, 17:11:17.602
69, 0.00, 0.00, -72.97, -137.75, -0.112, 0.016, -1.056, 17:11:17.602
70, 0.00, 0.00, 38.05, -2.60, -0.112, 0.016, -1.056, 17:11:17.602
71, 0.00, 0.00, 81.89, 11.26, -0.112, 0.016, -1.056, 17:11:17.624
72, 0.00, 0.00, -6.37, -109.17, -0.112, 0.016, -1.056, 17:11:17.625
73, 0.00, 0.00, -52.54, -127.23, -0.112, 0.016, -1.056, 17:11:17.625
74, 0.00, 0.00, 45.65, -2.79, -0.112, 0.016, -1.056, 17:11:17.625
75, 0.00, 0.00, 92.35, 9.53, -0.112, 0.016, -1.056, 17:11:17.647
76, 0.00, 0.00, -10.59, -111.99, -0.112, 0.016, -1.056, 17:11:17.647
77, 0.00, 0.00, -58.90, -129.25, -0.112, 0.016, -1.056, 17:11:17.669
78, 0.00, 0.00, 47.12, 0.19, -0.112, 0.016, -1.056, 17:11:17.669
79, 0.00, 0.00, 83.67, 3.34, -0.112, 0.016, -1.056, 17:11:17.670
80, 0.00, 0.00, -15.80, -118.98, -0.112, 0.016, -1.056, 17:11:17.670
81, 0.00, 0.00, -57.28, -127.58, -0.112, 0.016, -1.056, 17:11:17.692
82, 0.00, 0.00, 38.93, -7.69, -0.112, 0.016, -1.056, 17:11:17.692
85, 0.00, 0.00, -7.16, -11.52, -0.112, 0.016, -1.056, 17:11:17.693
86, 0.00, 0.00, 86.38, 101.36, -0.112, 0.016, -1.056, 17:11:17.693
87, 0.00, 0.00, 137.47, 116.26, -0.112, 0.016, -1.056, 17:11:17.714
88, 0.00, 0.00, 31.51, -18.69, -0.112, 0.016, -1.056, 17:11:17.714
89, 0.00, 0.00, -4.64, -28.20, -0.112, 0.016, -1.056, 17:11:17.714
90, 0.00, 0.00, 87.94, 103.95, -0.112, 0.016, -1.056, 17:11:17.715
93, 0.00, 0.00, 46.46, 88.50, -0.112, 0.016, -1.056, 17:11:17.737
94, 0.00, 0.00, 141.58, 225.10, -0.112, 0.016, -1.056, 17:11:17.737
95, 0.00, 0.00, 181.86, 233.25, -0.112, 0.016, -1.056, 17:11:17.737
96, 0.00, 0.00, 90.04, 102.98, -0.112, 0.016, -1.056, 17:11:17.737
97, 0.00, 0.00, 42.72, 97.03, -0.112, 0.016, -1.056, 17:11:17.759
98, 0.00, 0.00, 131.72, 215.53, -0.112, 0.016, -1.056, 17:11:17.759
99, 0.00, 0.00, 178.19, 214.49, -0.112, 0.016, -1.056, 17:11:17.760
100, 0.00, 0.00, 109.58, 112.35, -0.112, 0.016, -1.056, 17:11:17.760
103, 0.00, 0.00, 164.49, 128.62, -0.112, 0.016, -1.056, 17:11:17.782
104, 0.00, 0.00, 56.82, 2.49, -0.112, 0.016, -1.056, 17:11:17.782
105, 0.00, 0.00, 20.94, -14.01, -0.112, 0.016, -1.056, 17:11:17.782
106, 0.00, 0.00, 115.27, 114.25, -0.112, 0.016, -1.056, 17:11:17.785
107, 0.00, 0.00, 159.73, 124.97, -0.112, 0.016, -1.056, 17:11:17.804
108, 0.00, 0.00, 61.86, -2.38, -0.112, 0.016, -1.056, 17:11:17.804
109, 0.00, 0.00, 14.10, -16.43, -0.112, 0.016, -1.056, 17:11:17.805
110, 0.00, 0.00, 112.92, 110.28, -0.112, 0.016, -1.056, 17:11:17.805
111, 0.00, 0.00, 169.56, 131.48, -0.112, 0.016, -1.056, 17:11:17.826
112, 0.00, 0.00, 51.91, -8.01, -0.112, 0.016, -1.056, 17:11:17.827
113, 0.00, 0.00, 9.43, -16.36, -0.112, 0.016, -1.056, 17:11:17.827
114, 0.00, 0.00, 113.95, 118.75, -0.112, 0.016, -1.056, 17:11:17.827
115, 0.00, 0.00, 158.01, 123.57, -0.112, 0.016, -1.056, 17:11:17.849
116, 0.00, 0.00, 58.43, 2.77, -0.112, 0.016, -1.056, 17:11:17.849
117, 0.00, 0.00, 15.06, -5.12, -0.112, 0.016, -1.056, 17:11:17.849
118, 0.00, 0.00, 112.28, 106.75, -0.112, 0.016, -1.056, 17:11:17.849
121, 0.00, 0.00, 71.59, 99.78, -0.112, 0.016, -1.056, 17:11:17.872
122, 0.00, 0.00, 166.50, 218.33, -0.112, 0.016, -1.056, 17:11:17.872
123, 0.00, 0.00, 203.03, 227.50, -0.112, 0.016, -1.056, 17:11:17.873
124, 0.00, 0.00, 108.17, 111.17, -0.112, 0.016, -1.056, 17:11:17.873
125, 0.00, 0.00, 67.76, 102.20, -0.112, 0.016, -1.056, 17:11:17.894
126, 0.00, 0.00, 167.91, 227.27, -0.112, 0.016, -1.056, 17:11:17.894
127, 0.00, 0.00, 220.25, 234.75, -0.112, 0.016, -1.056, 17:11:17.895
128, 0.00, 0.00, 111.60, 107.63, -0.112, 0.016, -1.056, 17:11:17.895
129, 0.00, 0.00, 64.53, 99.38, -0.112, 0.016, -1.056, 17:11:17.917
130, 0.00, 0.00, 171.99, 225.03, -0.112, 0.016, -1.056, 17:11:17.917
131, 0.00, 0.00, 204.40, 222.97, -0.112, 0.016, -1.056, 17:11:17.917
132, 0.00, 0.00, 103.66, 98.35, -0.112, 0.016, -1.056, 17:11:17.917
133, 0.00, 0.00, 74.79, 95.56, -0.112, 0.016, -1.056, 17:11:17.940
134, 0.00, 0.00, 170.73, 222.95, -0.112, 0.016, -1.056, 17:11:17.941
135, 0.00, 0.00, 210.48, 226.16, -0.112, 0.016, -1.056, 17:11:17.941
136, 0.00, 0.00, 95.00, 92.82, -0.112, 0.016, -1.056, 17:11:17.941
139, 0.00, 0.00, 125.73, 93.92, -0.112, 0.016, -1.056, 17:11:17.962
140, 0.00, 0.00, 31.63, -21.17, -0.112, 0.016, -1.056, 17:11:17.962
141, 0.00, 0.00, -17.87, -30.37, -0.112, 0.016, -1.056, 17:11:17.963
142, 0.00, 0.00, 80.10, 91.90, -0.112, 0.016, -1.056, 17:11:17.963
143, 0.00, 0.00, 123.99, 92.17, -0.112, 0.016, -1.056, 17:11:17.984
144, 0.00, 0.00, 33.98, -23.85, -0.112, 0.016, -1.056, 17:11:17.984
145, 0.00, 0.00, -13.70, -32.13, -0.112, 0.016, -1.056, 17:11:17.985
146, 0.00, 0.00, 84.38, 86.62, -0.112, 0.016, -1.056, 17:11:17.985
147, 0.00, 0.00, 128.50, 98.39, -0.112, 0.016, -1.056, 17:11:18.006
148, 0.00, 0.00, 46.34, -21.46, -0.112, 0.016, -1.056, 17:11:18.007
149, 0.00, 0.00, 5.83, -21.73, -0.112, 0.016, -1.056, 17:11:18.007
150, 0.00, 0.00, 95.56, 92.16, -0.112, 0.016, -1.056, 17:11:18.007
151, 0.00, 0.00, 142.76, 104.94, -0.112, 0.016, -1.056, 17:11:18.029
152, 0.00, 0.00, 35.64, -22.04, -0.112, 0.016, -1.056, 17:11:18.029
153, 0.00, 0.00, -5.05, -37.22, -0.112, 0.016, -1.056, 17:11:18.030
154, 0.00, 0.00, 98.38, 92.65, -0.112, 0.016, -1.056, 17:11:18.030
157, 0.00, 0.00, 61.20, 82.77, -0.112, 0.016, -1.056, 17:11:18.051
158, 0.00, 0.00, 165.21, 210.37, -0.112, 0.016, -1.056, 17:11:18.052
159, 0.00, 0.00, 201.86, 215.34, -0.112, 0.016, -1.056, 17:11:18.052
160, 0.00, 0.00, 96.94, 91.31, -0.112, 0.016, -1.056, 17:11:18.052
161, 0.00, 0.00, 55.03, 73.45, -0.112, 0.016, -1.056, 17:11:18.074
162, 0.00, 0.00, 156.74, 208.26, -0.112, 0.016, -1.056, 17:11:18.074
163, 0.00, 0.00, 195.50, 214.12, -0.112, 0.016, -1.056, 17:11:18.074
164, 0.00, 0.00, 99.41, 95.15, -0.112, 0.016, -1.056, 17:11:18.074
165, 0.00, 0.00, 57.10, 85.34, -0.112, 0.016, -1.056, 17:11:18.097
166, 0.00, 0.00, 146.50, 206.55, -0.112, 0.016, -1.056, 17:11:18.097
167, 0.00, 0.00, 203.46, 220.53, -0.112, 0.016, -1.056, 17:11:18.098
168, 0.00, 0.00, 104.27, 100.00, -0.112, 0.016, -1.056, 17:11:18.098
169, 0.00, 0.00, 55.25, 79.91, -0.112, 0.016, -1.056, 17:11:18.119
170, 0.00, 0.00, 157.93, 202.10, -0.112, 0.016, -1.056, 17:11:18.119
171, 0.00, 0.00, 194.34, 211.55, -0.112, 0.016, -1.056, 17:11:18.120
172, 0.00, 0.00, 97.02, 94.56, -0.112, 0.016, -1.056, 17:11:18.120
175, 0.00, 0.00, 144.57, 107.35, -0.112, 0.016, -1.056, 17:11:18.141
176, 0.00, 0.00, 33.57, -22.68, -0.112, 0.016, -1.056, 17:11:18.142
177, 0.00, 0.00, 0.96, -18.92, -0.112, 0.016, -1.056, 17:11:18.142
178, 0.00, 0.00, 107.45, 98.13, -0.112, 0.016, -1.056, 17:11:18.142
179, 0.00, 0.00, 110.14, 69.75, -0.112, 0.016, -1.056, 17:11:18.164
180, 0.00, 0.00, -13.37, -42.75, -0.112, 0.016, -1.056, 17:11:18.165
181, 0.00, 0.00, -21.24, -28.48, -0.112, 0.016, -1.056, 17:11:18.165
182, 0.00, 0.00, 94.37, 109.19, -0.112, 0.016, -1.056, 17:11:18.165
183, 0.00, 0.00, 134.85, 121.31, -0.112, 0.016, -1.056, 17:11:18.187
184, 0.00, 0.00, 21.78, -14.74, -0.112, 0.016, -1.056, 17:11:18.187
185, 0.00, 0.00, -24.82, -20.67, -0.112, 0.016, -1.056, 17:11:18.187
186, 0.00, 0.00, 48.56, 79.24, -0.112, 0.016, -1.056, 17:11:18.187
187, 0.00, 0.00, 73.75, 76.49, -0.112, 0.016, -1.056, 17:11:18.209
188, 0.00, 0.00, -35.10, -48.92, -0.112, 0.016, -1.056, 17:11:18.209
189, 0.00, 0.00, -78.98, -67.18, -0.112, 0.016, -1.056, 17:11:18.210
190, 0.00, 0.00, 21.34, 53.15, -0.112, 0.016, -1.056, 17:11:18.210
193, 0.00, 0.00, -15.20, 42.01, -0.112, 0.016, -1.056, 17:11:18.232
194, 0.00, 0.00, 98.66, 176.82, -0.112, 0.016, -1.056, 17:11:18.232
195, 0.00, 0.00, 132.49, 188.45, -0.112, 0.016, -1.056, 17:11:18.232
196, 0.00, 0.00, 38.49, 65.04, -0.112, 0.016, -1.056, 17:11:18.232
197, 0.00, 0.00, 1.42, 60.88, -0.112, 0.016, -1.056, 17:11:18.254
198, 0.00, 0.00, 116.67, 186.10, -0.112, 0.016, -1.056, 17:11:18.254
199, 0.00, 0.00, 152.54, 187.75, -0.112, 0.016, -1.056, 17:11:18.255
200, 0.00, 0.00, 60.27, 76.52, -0.112, 0.016, -1.056, 17:11:18.255
1, 0.00, 0.00, 163.07, 194.26, -0.112, 0.016, -1.056, 17:11:18.299
2, 0.00, 0.00, 192.95, 193.87, -0.112, 0.016, -1.056, 17:11:18.299
3, 0.00, 0.00, 101.25, 72.15, -0.112, 0.016, -1.056, 17:11:18.300
4, 0.00, 0.00, 73.12, 74.48, -0.112, 0.016, -1.056, 17:11:18.300
5, 0.00, 0.00, 178.60, 205.32, -0.112, 0.016, -1.056, 17:11:18.321
6, 0.00, 0.00, 203.12, 200.31, -0.112, 0.016, -1.056, 17:11:18.322
7, 0.00, 0.00, 120.28, 84.16, -0.112, 0.016, -1.056, 17:11:18.322
8, 0.00, 0.00, 76.55, 79.90, -0.112, 0.016, -1.056, 17:11:18.323
9, 0.00, 0.00, 188.53, 208.96, -0.112, 0.016, -1.056, 17:11:18.344
10, 0.00, 0.00, 221.14, 207.93, -0.112, 0.016, -1.056, 17:11:18.344
11, 0.00, 0.00, 129.15, 92.49, -0.112, 0.016, -1.056, 17:11:18.345
12, 0.00, 0.00, 79.83, 74.16, -0.112, 0.016, -1.056, 17:11:18.345
13, 0.00, 0.00, 179.54, 200.94, -0.112, 0.016, -1.056, 17:11:18.369
14, 0.00, 0.00, 212.11, 201.02, -0.112, 0.016, -1.056, 17:11:18.369
19, 0.00, 0.00, 100.94, 78.05, -0.112, 0.016, -1.056, 17:11:18.369
20, 0.00, 0.00, 79.64, 72.44, -0.112, 0.016, -1.056, 17:11:18.369
23, 0.00, 0.00, -12.00, -51.33, -0.112, 0.016, -1.056, 17:11:18.390
24, 0.00, 0.00, -45.51, -42.99, -0.112, 0.016, -1.056, 17:11:18.390
25, 0.00, 0.00, 55.18, 74.12, -0.112, 0.016, -1.056, 17:11:18.391
26, 0.00, 0.00, 85.63, 77.49, -0.112, 0.016, -1.056, 17:11:18.391
27, 0.00, 0.00, -8.53, -41.33, -0.112, 0.016, -1.056, 17:11:18.412
28, 0.00, 0.00, -52.76, -47.88, -0.112, 0.016, -1.056, 17:11:18.412
29, 0.00, 0.00, 38.65, 73.46, -0.112, 0.016, -1.056, 17:11:18.413
30, 0.00, 0.00, 87.16, 78.34, -0.112, 0.016, -1.056, 17:11:18.413
31, 0.00, 0.00, -11.75, -37.10, -0.112, 0.016, -1.056, 17:11:18.434
32, 0.00, 0.00, -68.80, -59.67, -0.112, 0.016, -1.056, 17:11:18.434
33, 0.00, 0.00, 39.28, 64.63, -0.112, 0.016, -1.056, 17:11:18.457
34, 0.00, 0.00, 114.71, 100.23, -0.112, 0.016, -1.056, 17:11:18.457
37, 0.00, 0.00, 215.75, 229.44, -0.112, 0.016, -1.056, 17:11:18.457
38, 0.00, 0.00, 249.34, 224.44, -0.112, 0.016, -1.056, 17:11:18.457
39, 0.00, 0.00, 140.30, 97.34, -0.112, 0.016, -1.056, 17:11:18.479
40, 0.00, 0.00, 107.51, 109.61, -0.112, 0.016, -1.056, 17:11:18.479
41, 0.00, 0.00, 193.77, 217.08, -0.112, 0.016, -1.056, 17:11:18.480
42, 0.00, 0.00, 239.06, 209.98, -0.112, 0.016, -1.056, 17:11:18.480
43, 0.00, 0.00, 137.22, 97.44, -0.112, 0.016, -1.056, 17:11:18.525
44, 0.00, 0.00, 93.21, 87.79, -0.112, 0.016, -1.056, 17:11:18.525
45, 0.00, 0.00, 196.29, 221.52, -0.112, 0.016, -1.056, 17:11:18.525
46, 0.00, 0.00, 217.75, 211.27, -0.112, 0.016, -1.056, 17:11:18.525
47, 0.00, 0.00, 128.09, 92.35, -0.112, 0.016, -1.056, 17:11:18.546
48, 0.00, 0.00, 93.18, 88.46, -0.112, 0.016, -1.056, 17:11:18.547
49, 0.00, 0.00, 198.35, 214.08, -0.112, 0.016, -1.056, 17:11:18.547
50, 0.00, 0.00, 237.00, 216.13, -0.112, 0.016, -1.056, 17:11:18.547
55, 0.00, 0.00, 134.05, 86.47, -0.112, 0.016, -1.056, 17:11:18.614
56, 0.00, 0.00, 103.67, 87.13, -0.112, 0.016, -1.056, 17:11:18.614
57, 0.00, 0.00, 185.38, 200.39, -0.112, 0.016, -1.056, 17:11:18.614
58, 0.00, 0.00, 233.89, 206.48, -0.112, 0.016, -1.056, 17:11:18.615
59, 0.00, 0.00, 144.63, 91.83, -0.112, 0.016, -1.056, 17:11:18.638
60, 0.00, 0.00, 110.70, 95.29, -0.112, 0.016, -1.056, 17:11:18.639
63, 0.00, 0.00, 5.59, -16.65, -0.112, 0.016, -1.056, 17:11:18.639
64, 0.00, 0.00, -38.87, -26.91, -0.112, 0.016, -1.056, 17:11:18.639
67, 0.00, 0.00, -146.73, -162.25, -0.112, 0.016, -1.056, 17:11:18.660
68, 0.00, 0.00, -181.35, -156.13, -0.112, 0.016, -1.056, 17:11:18.660
69, 0.00, 0.00, -94.00, -41.59, -0.112, 0.016, -1.056, 17:11:18.660
70, 0.00, 0.00, -63.60, -55.06, -0.112, 0.016, -1.056, 17:11:18.660
73, 0.00, 0.00, 47.10, 73.88, -0.112, 0.016, -1.056, 17:11:18.682
74, 0.00, 0.00, 81.16, 60.96, -0.112, 0.016, -1.056, 17:11:18.682
81, 0.00, 0.00, 179.08, 175.69, -0.112, 0.016, -1.056, 17:11:18.682
82, 0.00, 0.00, 220.45, 178.40, -0.112, 0.016, -1.056, 17:11:18.682
85, 0.00, 0.00, 329.19, 309.01, -0.112, 0.016, -1.056, 17:11:18.704
86, 0.00, 0.00, 373.22, 316.99, -0.112, 0.016, -1.056, 17:11:18.705
87, 0.00, 0.00, 263.67, 194.67, -0.112, 0.016, -1.056, 17:11:18.705
88, 0.00, 0.00, 223.87, 188.67, -0.112, 0.016, -1.056, 17:11:18.706
91, 0.00, 0.00, 109.81, 61.33, -0.112, 0.016, -1.056, 17:11:18.727
92, 0.00, 0.00, 83.02, 72.22, -0.112, 0.016, -1.056, 17:11:18.727
93, 0.00, 0.00, 191.42, 191.88, -0.112, 0.016, -1.056, 17:11:18.727
94, 0.00, 0.00, 230.76, 203.39, -0.112, 0.016, -1.056, 17:11:18.728
95, 0.00, 0.00, 120.59, 73.65, -0.112, 0.016, -1.056, 17:11:18.772
96, 0.00, 0.00, 88.90, 63.53, -0.112, 0.016, -1.056, 17:11:18.772
97, 0.00, 0.00, 183.43, 186.74, -0.112, 0.016, -1.056, 17:11:18.773
98, 0.00, 0.00, 217.17, 189.99, -0.112, 0.016, -1.056, 17:11:18.773
99, 0.00, 0.00, 115.52, 67.54, -0.112, 0.016, -1.056, 17:11:18.794
100, 0.00, 0.00, 78.53, 61.53, -0.112, 0.016, -1.056, 17:11:18.794
101, 0.00, 0.00, 177.03, 183.70, -0.112, 0.016, -1.056, 17:11:18.817
102, 0.00, 0.00, 212.65, 180.63, -0.112, 0.016, -1.056, 17:11:18.817
103, 0.00, 0.00, 105.59, 41.61, -0.112, 0.016, -1.056, 17:11:18.817
104, 0.00, 0.00, 81.47, 62.57, -0.112, 0.016, -1.056, 17:11:18.817
105, 0.00, 0.00, 182.00, 191.21, -0.112, 0.016, -1.056, 17:11:18.840
106, 0.00, 0.00, 224.75, 186.99, -0.112, 0.016, -1.056, 17:11:18.841
109, 0.00, 0.00, 328.04, 320.41, -0.112, 0.016, -1.056, 17:11:18.841
110, 0.00, 0.00, 360.10, 302.49, -0.112, 0.016, -1.056, 17:11:18.841
113, 0.00, 0.00, 465.14, 420.86, -0.112, 0.016, -1.056, 17:11:18.863
114, 0.00, 0.00, 483.19, 407.10, -0.112, 0.016, -1.056, 17:11:18.863
117, 0.00, 0.00, 596.76, 536.74, -0.112, 0.016, -1.056, 17:11:18.863
118, 0.00, 0.00, 619.42, 523.88, -0.112, 0.016, -1.056, 17:11:18.863
119, 0.00, 0.00, 514.75, 402.39, -0.112, 0.016, -1.056, 17:11:18.884
120, 0.00, 0.00, 479.82, 397.72, -0.112, 0.016, -1.056, 17:11:18.884
121, 0.00, 0.00, 591.32, 525.80, -0.112, 0.016, -1.056, 17:11:18.884
122, 0.00, 0.00, 628.13, 534.25, -0.112, 0.016, -1.056, 17:11:18.885
127, 0.00, 0.00, 527.68, 407.80, -0.112, 0.016, -1.056, 17:11:18.929
128, 0.00, 0.00, 490.03, 405.09, -0.112, 0.016, -1.056, 17:11:18.930
129, 0.00, 0.00, 604.09, 528.52, -0.112, 0.016, -1.056, 17:11:18.930
130, 0.00, 0.00, 625.88, 528.19, -0.112, 0.016, -1.056, 17:11:18.930
131, 0.00, 0.00, 535.14, 414.38, -0.112, 0.016, -1.056, 17:11:18.952
132, 0.00, 0.00, 491.25, 413.96, -0.112, 0.016, -1.056, 17:11:18.952
133, 0.00, 0.00, 594.29, 540.37, -0.112, 0.016, -1.056, 17:11:18.952
134, 0.00, 0.00, 633.26, 534.65, -0.112, 0.016, -1.056, 17:11:18.952
135, 0.00, 0.00, 539.75, 413.17, -0.112, 0.016, -1.056, 17:11:18.974
136, 0.00, 0.00, 498.01, 399.82, -0.112, 0.016, -1.056, 17:11:18.974
137, 0.00, 0.00, 596.47, 523.92, -0.112, 0.016, -1.056, 17:11:18.975
138, 0.00, 0.00, 637.11, 529.51, -0.112, 0.016, -1.056, 17:11:18.975
139, 0.00, 0.00, 527.00, 409.43, -0.112, 0.016, -1.056, 17:11:18.997
140, 0.00, 0.00, 492.48, 410.47, -0.112, 0.016, -1.056, 17:11:18.997
145, 0.00, 0.00, 581.98, 533.52, -0.112, 0.016, -1.056, 17:11:18.997
146, 0.00, 0.00, 622.64, 529.52, -0.112, 0.016, -1.056, 17:11:18.997
149, 0.00, 0.00, 739.76, 662.97, -0.112, 0.016, -1.056, 17:11:19.019
150, 0.00, 0.00, 754.89, 655.59, -0.112, 0.016, -1.056, 17:11:19.019
151, 0.00, 0.00, 654.44, 537.31, -0.112, 0.016, -1.056, 17:11:19.020
152, 0.00, 0.00, 634.86, 543.10, -0.112, 0.016, -1.056, 17:11:19.020
153, 0.00, 0.00, 731.71, 658.64, -0.112, 0.016, -1.056, 17:11:19.042
154, 0.00, 0.00, 760.80, 660.64, -0.112, 0.016, -1.056, 17:11:19.042
155, 0.00, 0.00, 657.53, 533.52, -0.112, 0.016, -1.056, 17:11:19.042
156, 0.00, 0.00, 615.15, 531.88, -0.112, 0.016, -1.056, 17:11:19.042
157, 0.00, 0.00, 725.53, 661.75, -0.112, 0.016, -1.056, 17:11:19.064
158, 0.00, 0.00, 752.92, 653.69, -0.112, 0.016, -1.056, 17:11:19.064
159, 0.00, 0.00, 650.51, 531.72, -0.112, 0.016, -1.056, 17:11:19.064
160, 0.00, 0.00, 623.96, 544.09, -0.112, 0.016, -1.056, 17:11:19.065
163, 0.00, 0.00, 506.18, 409.94, -0.112, 0.016, -1.056, 17:11:19.087
164, 0.00, 0.00, 474.58, 405.35, -0.112, 0.016, -1.056, 17:11:19.087
165, 0.00, 0.00, 585.90, 543.95, -0.112, 0.016, -1.056, 17:11:19.087
166, 0.00, 0.00, 611.62, 531.74, -0.112, 0.016, -1.056, 17:11:19.087
167, 0.00, 0.00, 512.76, 408.74, -0.112, 0.016, -1.056, 17:11:19.132
168, 0.00, 0.00, 480.42, 406.12, -0.112, 0.016, -1.056, 17:11:19.132
169, 0.00, 0.00, 582.52, 528.35, -0.112, 0.016, -1.056, 17:11:19.132
170, 0.00, 0.00, 613.00, 528.00, -0.112, 0.016, -1.056, 17:11:19.132
171, 0.00, 0.00, 499.00, 403.92, -0.112, 0.016, -1.056, 17:11:19.154
172, 0.00, 0.00, 476.76, 407.20, -0.112, 0.016, -1.056, 17:11:19.155
173, 0.00, 0.00, 581.79, 527.98, -0.112, 0.016, -1.056, 17:11:19.155
174, 0.00, 0.00, 603.38, 522.29, -0.112, 0.016, -1.056, 17:11:19.155
175, 0.00, 0.00, 497.23, 410.44, -0.112, 0.016, -1.056, 17:11:19.177
176, 0.00, 0.00, 484.13, 410.32, -0.112, 0.016, -1.056, 17:11:19.177
177, 0.00, 0.00, 594.89, 542.48, -0.112, 0.016, -1.056, 17:11:19.178
178, 0.00, 0.00, 632.37, 549.11, -0.112, 0.016, -1.056, 17:11:19.178
181, 0.00, 0.00, 748.58, 678.67, -0.112, 0.016, -1.056, 17:11:19.199
182, 0.00, 0.00, 783.02, 689.67, -0.112, 0.016, -1.056, 17:11:19.199
185, 0.00, 0.00, 885.23, 818.23, -0.112, 0.016, -1.056, 17:11:19.200
186, 0.00, 0.00, 908.78, 810.68, -0.112, 0.016, -1.056, 17:11:19.200
189, 0.00, 0.00, 1019.54, 933.71, -0.112, 0.016, -1.056, 17:11:19.222
190, 0.00, 0.00, 1041.07, 921.28, -0.112, 0.016, -1.056, 17:11:19.222
191, 0.00, 0.00, 941.28, 793.14, -0.112, 0.016, -1.056, 17:11:19.222
192, 0.00, 0.00, 896.23, 788.59, -0.112, 0.016, -1.056, 17:11:19.223
193, 0.00, 0.00, 1008.86, 916.36, -0.112, 0.016, -1.056, 17:11:19.244
194, 0.00, 0.00, 1033.79, 907.18, -0.112, 0.016, -1.056, 17:11:19.244
195, 0.00, 0.00, 922.91, 783.53, -0.112, 0.016, -1.056, 17:11:19.245
196, 0.00, 0.00, 901.50, 794.42, -0.112, 0.016, -1.056, 17:11:19.245
199, 0.00, 0.00, 796.63, 670.28, -0.112, 0.016, -1.056, 17:11:19.267
200, 0.00, 0.00, 770.36, 668.21, -0.112, 0.016, -1.056, 17:11:19.267
0, 0.00, 0.00, -1013.97, -179.92, -0.112, 0.016, -1.056, 17:11:19.289
1, 0.00, 0.00, -977.26, -174.92, -0.112, 0.016, -1.056, 17:11:19.290
2, 0.00, 0.00, -1080.11, -299.33, -0.112, 0.016, -1.056, 17:11:19.290
3, 0.00, 0.00, -1123.69, -298.44, -0.112, 0.016, -1.056, 17:11:19.312
4, 0.00, 0.00, -1009.91, -171.37, -0.112, 0.016, -1.056, 17:11:19.312
7, 0.00, 0.00, -1031.09, -161.54, -0.112, 0.016, -1.056, 17:11:19.313
8, 0.00, 0.00, -926.34, -28.68, -0.112, 0.016, -1.056, 17:11:19.313
9, 0.00, 0.00, -893.34, -40.27, -0.112, 0.016, -1.056, 17:11:19.357
10, 0.00, 0.00, -989.24, -156.68, -0.112, 0.016, -1.056, 17:11:19.357
11, 0.00, 0.00, -1032.84, -157.43, -0.112, 0.016, -1.056, 17:11:19.357
12, 0.00, 0.00, -920.69, -25.96, -0.112, 0.016, -1.056, 17:11:19.357
13, 0.00, 0.00, -897.53, -36.59, -0.112, 0.016, -1.056, 17:11:19.379
14, 0.00, 0.00, -987.31, -153.51, -0.112, 0.016, -1.056, 17:11:19.380
15, 0.00, 0.00, -1020.46, -147.40, -0.112, 0.016, -1.056, 17:11:19.380
16, 0.00, 0.00, -919.22, -22.22, -0.112, 0.016, -1.056, 17:11:19.380
19, 0.00, 0.00, -951.60, -19.24, -0.112, 0.016, -1.056, 17:11:19.402
20, 0.00, 0.00, -877.48, 84.27, -0.112, 0.016, -1.056, 17:11:19.402
21, 0.00, 0.00, -849.02, 77.69, -0.112, 0.016, -1.056, 17:11:19.402
22, 0.00, 0.00, -940.40, -41.99, -0.112, 0.016, -1.056, 17:11:19.402
25, 0.00, 0.00, -923.34, -54.42, -0.112, 0.016, -1.056, 17:11:19.447
26, 0.00, 0.00, -1021.84, -182.77, -0.112, 0.016, -1.056, 17:11:19.447
29, 0.00, 0.00, -1006.88, -196.43, -0.112, 0.016, -1.056, 17:11:19.447
30, 0.00, 0.00, -1096.31, -311.43, -0.112, 0.016, -1.056, 17:11:19.447
33, 0.00, 0.00, -1054.37, -323.27, -0.112, 0.016, -1.056, 17:11:19.492
34, 0.00, 0.00, -1167.05, -446.05, -0.112, 0.016, -1.056, 17:11:19.492
35, 0.00, 0.00, -1197.57, -446.00, -0.112, 0.016, -1.056, 17:11:19.492
36, 0.00, 0.00, -1094.49, -320.35, -0.112, 0.016, -1.056, 17:11:19.492
37, 0.00, 0.00, -1072.99, -323.38, -0.112, 0.016, -1.056, 17:11:19.514
38, 0.00, 0.00, -1160.00, -448.28, -0.112, 0.016, -1.056, 17:11:19.515
39, 0.00, 0.00, -1177.30, -426.26, -0.112, 0.016, -1.056, 17:11:19.515
40, 0.00, 0.00, -1080.23, -298.02, -0.112, 0.016, -1.056, 17:11:19.515
43, 0.00, 0.00, -1113.21, -299.48, -0.112, 0.016, -1.056, 17:11:19.537
44, 0.00, 0.00, -997.92, -172.42, -0.112, 0.016, -1.056, 17:11:19.537
47, 0.00, 0.00, -1035.59, -173.45, -0.112, 0.016, -1.056, 17:11:19.537
48, 0.00, 0.00, -922.74, -36.12, -0.112, 0.016, -1.056, 17:11:19.538
51, 0.00, 0.00, -944.07, -29.70, -0.112, 0.016, -1.056, 17:11:19.559
52, 0.00, 0.00, -830.24, 93.10, -0.112, 0.016, -1.056, 17:11:19.559
55, 0.00, 0.00, -854.12, 103.95, -0.112, 0.016, -1.056, 17:11:19.560
56, 0.00, 0.00, -744.54, 233.71, -0.112, 0.016, -1.056, 17:11:19.560
61, 0.00, 0.00, -719.91, 222.92, -0.112, 0.016, -1.056, 17:11:19.604
62, 0.00, 0.00, -786.79, 132.12, -0.112, 0.016, -1.056, 17:11:19.604
63, 0.00, 0.00, -804.21, 146.02, -0.112, 0.016, -1.056, 17:11:19.605
64, 0.00, 0.00, -677.60, 283.92, -0.112, 0.016, -1.056, 17:11:19.605
65, 0.00, 0.00, -651.50, 267.98, -0.112, 0.016, -1.056, 17:11:19.626
66, 0.00, 0.00, -768.86, 130.70, -0.112, 0.016, -1.056, 17:11:19.627
67, 0.00, 0.00, -797.80, 140.34, -0.112, 0.016, -1.056, 17:11:19.627
68, 0.00, 0.00, -697.15, 270.62, -0.112, 0.016, -1.056, 17:11:19.627
69, 0.00, 0.00, -677.07, 252.92, -0.112, 0.016, -1.056, 17:11:19.649
70, 0.00, 0.00, -790.06, 115.02, -0.112, 0.016, -1.056, 17:11:19.650
71, 0.00, 0.00, -822.98, 122.84, -0.112, 0.016, -1.056, 17:11:19.650
72, 0.00, 0.00, -734.24, 241.60, -0.112, 0.016, -1.056, 17:11:19.650
73, 0.00, 0.00, -722.74, 213.97, -0.112, 0.016, -1.056, 17:11:19.672
74, 0.00, 0.00, -836.34, 86.82, -0.112, 0.016, -1.056, 17:11:19.672
79, 0.00, 0.00, -880.54, 85.24, -0.112, 0.016, -1.056, 17:11:19.673
80, 0.00, 0.00, -776.92, 212.06, -0.112, 0.016, -1.056, 17:11:19.673
83, 0.00, 0.00, -795.44, 236.65, -0.112, 0.016, -1.056, 17:11:19.694
84, 0.00, 0.00, -697.91, 353.40, -0.112, 0.016, -1.056, 17:11:19.695
85, 0.00, 0.00, -666.46, 348.56, -0.112, 0.016, -1.056, 17:11:19.695
86, 0.00, 0.00, -761.05, 220.13, -0.112, 0.016, -1.056, 17:11:19.695
87, 0.00, 0.00, -793.63, 241.20, -0.112, 0.016, -1.056, 17:11:19.716
88, 0.00, 0.00, -671.71, 376.44, -0.112, 0.016, -1.056, 17:11:19.717
89, 0.00, 0.00, -663.86, 350.93, -0.112, 0.016, -1.056, 17:11:19.717
90, 0.00, 0.00, -760.08, 233.06, -0.112, 0.016, -1.056, 17:11:19.717
91, 0.00, 0.00, -780.92, 244.08, -0.112, 0.016, -1.056, 17:11:19.762
92, 0.00, 0.00, -677.92, 381.42, -0.112, 0.016, -1.056, 17:11:19.762
93, 0.00, 0.00, -646.64, 372.32, -0.112, 0.016, -1.056, 17:11:19.762
94, 0.00, 0.00, -771.50, 230.61, -0.112, 0.016, -1.056, 17:11:19.763
97, 0.00, 0.00, -734.37, 229.98, -0.112, 0.016, -1.056, 17:11:19.807
98, 0.00, 0.00, -838.31, 108.60, -0.112, 0.016, -1.056, 17:11:19.808
99, 0.00, 0.00, -859.04, 125.43, -0.112, 0.016, -1.056, 17:11:19.808
100, 0.00, 0.00, -764.66, 241.35, -0.112, 0.016, -1.056, 17:11:19.808
101, 0.00, 0.00, -735.11, 225.44, -0.112, 0.016, -1.056, 17:11:19.829
102, 0.00, 0.00, -840.18, 107.34, -0.112, 0.016, -1.056, 17:11:19.830
103, 0.00, 0.00, -870.25, 106.22, -0.112, 0.016, -1.056, 17:11:19.830
104, 0.00, 0.00, -756.55, 248.31, -0.112, 0.016, -1.056, 17:11:19.830
105, 0.00, 0.00, -736.33, 230.05, -0.112, 0.016, -1.056, 17:11:19.851
106, 0.00, 0.00, -861.49, 96.59, -0.112, 0.016, -1.056, 17:11:19.852
109, 0.00, 0.00, -838.48, 87.30, -0.112, 0.016, -1.056, 17:11:19.852
110, 0.00, 0.00, -945.14, -31.04, -0.112, 0.016, -1.056, 17:11:19.852
119, 0.00, 0.00, -974.33, -20.59, -0.112, 0.016, -1.056, 17:11:19.874
120, 0.00, 0.00, -886.27, 97.98, -0.112, 0.016, -1.056, 17:11:19.874
121, 0.00, 0.00, -869.39, 70.15, -0.112, 0.016, -1.056, 17:11:19.875
122, 0.00, 0.00, -984.21, -54.40, -0.112, 0.016, -1.056, 17:11:19.875
123, 0.00, 0.00, -1000.35, -42.85, -0.112, 0.016, -1.056, 17:11:19.897
124, 0.00, 0.00, -880.73, 84.49, -0.112, 0.016, -1.056, 17:11:19.897
125, 0.00, 0.00, -873.84, 67.14, -0.112, 0.016, -1.056, 17:11:19.897
126, 0.00, 0.00, -973.22, -59.36, -0.112, 0.016, -1.056, 17:11:19.897
127, 0.00, 0.00, -1007.39, -45.33, -0.112, 0.016, -1.056, 17:11:19.919
128, 0.00, 0.00, -889.20, 80.22, -0.112, 0.016, -1.056, 17:11:19.919
129, 0.00, 0.00, -867.90, 49.76, -0.112, 0.016, -1.056, 17:11:19.919
130, 0.00, 0.00, -962.69, -55.57, -0.112, 0.016, -1.056, 17:11:19.920
133, 0.00, 0.00, -934.94, -68.19, -0.112, 0.016, -1.056, 17:11:19.942
134, 0.00, 0.00, -1044.56, -197.03, -0.112, 0.016, -1.056, 17:11:19.942
135, 0.00, 0.00, -1065.37, -183.73, -0.112, 0.016, -1.056, 17:11:19.964
136, 0.00, 0.00, -953.76, -59.49, -0.112, 0.016, -1.056, 17:11:19.964
137, 0.00, 0.00, -925.77, -65.28, -0.112, 0.016, -1.056, 17:11:19.965
138, 0.00, 0.00, -1026.15, -194.13, -0.112, 0.016, -1.056, 17:11:19.965
139, 0.00, 0.00, -1051.59, -180.23, -0.112, 0.016, -1.056, 17:11:19.987
140, 0.00, 0.00, -941.43, -45.31, -0.112, 0.016, -1.056, 17:11:19.987
141, 0.00, 0.00, -913.56, -61.31, -0.112, 0.016, -1.056, 17:11:19.987
142, 0.00, 0.00, -1022.45, -186.19, -0.112, 0.016, -1.056, 17:11:19.987
143, 0.00, 0.00, -1040.92, -174.36, -0.112, 0.016, -1.056, 17:11:20.009
144, 0.00, 0.00, -942.38, -50.28, -0.112, 0.016, -1.056, 17:11:20.009
145, 0.00, 0.00, -908.05, -52.86, -0.112, 0.016, -1.056, 17:11:20.010
146, 0.00, 0.00, -1023.28, -191.01, -0.112, 0.016, -1.056, 17:11:20.010
147, 0.00, 0.00, -1046.80, -173.52, -0.112, 0.016, -1.056, 17:11:20.031
148, 0.00, 0.00, -943.95, -51.20, -0.112, 0.016, -1.056, 17:11:20.032
151, 0.00, 0.00, -955.44, -24.37, -0.112, 0.016, -1.056, 17:11:20.032
152, 0.00, 0.00, -847.80, 106.21, -0.112, 0.016, -1.056, 17:11:20.032
155, 0.00, 0.00, -878.50, 115.59, -0.112, 0.016, -1.056, 17:11:20.054
156, 0.00, 0.00, -764.21, 248.29, -0.112, 0.016, -1.056, 17:11:20.055
157, 0.00, 0.00, -748.64, 234.98, -0.112, 0.016, -1.056, 17:11:20.055
158, 0.00, 0.00, -850.54, 98.00, -0.112, 0.016, -1.056, 17:11:20.055
159, 0.00, 0.00, -887.63, 114.16, -0.112, 0.016, -1.056, 17:11:20.076
160, 0.00, 0.00, -764.83, 243.37, -0.112, 0.016, -1.056, 17:11:20.077
161, 0.00, 0.00, -731.35, 235.84, -0.112, 0.016, -1.056, 17:11:20.077
162, 0.00, 0.00, -844.31, 105.52, -0.112, 0.016, -1.056, 17:11:20.077
163, 0.00, 0.00, -862.00, 117.34, -0.112, 0.016, -1.056, 17:11:20.122
164, 0.00, 0.00, -756.81, 237.09, -0.112, 0.016, -1.056, 17:11:20.122
165, 0.00, 0.00, -745.44, 228.22, -0.112, 0.016, -1.056, 17:11:20.123
166, 0.00, 0.00, -840.44, 109.22, -0.112, 0.016, -1.056, 17:11:20.123
169, 0.00, 0.00, -806.51, 105.76, -0.112, 0.016, -1.056, 17:11:20.146
170, 0.00, 0.00, -925.75, -22.52, -0.112, 0.016, -1.056, 17:11:20.146
171, 0.00, 0.00, -937.65, -8.35, -0.112, 0.016, -1.056, 17:11:20.147
172, 0.00, 0.00, -828.89, 110.86, -0.112, 0.016, -1.056, 17:11:20.148
173, 0.00, 0.00, -805.08, 98.20, -0.112, 0.016, -1.056, 17:11:20.166
174, 0.00, 0.00, -928.29, -32.48, -0.112, 0.016, -1.056, 17:11:20.167
175, 0.00, 0.00, -930.87, 4.24, -0.112, 0.016, -1.056, 17:11:20.167
176, 0.00, 0.00, -827.03, 118.31, -0.112, 0.016, -1.056, 17:11:20.167
177, 0.00, 0.00, -803.75, 99.49, -0.112, 0.016, -1.056, 17:11:20.189
178, 0.00, 0.00, -921.31, -29.98, -0.112, 0.016, -1.056, 17:11:20.189
181, 0.00, 0.00, -899.98, -37.16, -0.112, 0.016, -1.056, 17:11:20.190
182, 0.00, 0.00, -1006.50, -159.97, -0.112, 0.016, -1.056, 17:11:20.190
187, 0.00, 0.00, -1023.10, -139.44, -0.112, 0.016, -1.056, 17:11:20.212
188, 0.00, 0.00, -923.67, -14.22, -0.112, 0.016, -1.056, 17:11:20.212
189, 0.00, 0.00, -897.34, -30.86, -0.112, 0.016, -1.056, 17:11:20.212
190, 0.00, 0.00, -1004.61, -155.63, -0.112, 0.016, -1.056, 17:11:20.212
191, 0.00, 0.00, -1024.78, -137.61, -0.112, 0.016, -1.056, 17:11:20.235
192, 0.00, 0.00, -918.85, -8.85, -0.112, 0.016, -1.056, 17:11:20.235
193, 0.00, 0.00, -906.28, -35.86, -0.112, 0.016, -1.056, 17:11:20.235
194, 0.00, 0.00, -1005.01, -149.97, -0.112, 0.016, -1.056, 17:11:20.235
195, 0.00, 0.00, -1026.84, -142.02, -0.112, 0.016, -1.056, 17:11:20.257
196, 0.00, 0.00, -921.62, -9.06, -0.112, 0.016, -1.056, 17:11:20.257
197, 0.00, 0.00, -900.55, -27.79, -0.112, 0.016, -1.056, 17:11:20.280
198, 0.00, 0.00, -1006.81, -151.76, -0.112, 0.016, -1.056, 17:11:20.280
199, 0.00, 0.00, -1029.41, -141.40, -0.112, 0.016, -1.056, 17:11:20.280
200, 0.00, 0.00, -925.99, -19.56, -0.112, 0.016, -1.056, 17:11:20.280
0, 0.00, 0.00, -993.50, -198.28, -0.112, 0.016, -1.056, 17:11:20.302
3, 0.00, 0.00, -872.62, -73.46, -0.112, 0.016, -1.056, 17:11:20.302
4, 0.00, 0.00, -850.28, -90.82, -0.112, 0.016, -1.056, 17:11:20.302
5, 0.00, 0.00, -961.56, -218.18, -0.112, 0.016, -1.056, 17:11:20.324
6, 0.00, 0.00, -982.46, -198.10, -0.112, 0.016, -1.056, 17:11:20.324
7, 0.00, 0.00, -875.22, -70.18, -0.112, 0.016, -1.056, 17:11:20.325
8, 0.00, 0.00, -858.23, -91.09, -0.112, 0.016, -1.056, 17:11:20.325
9, 0.00, 0.00, -964.66, -218.36, -0.112, 0.016, -1.056, 17:11:20.346
10, 0.00, 0.00, -974.79, -187.45, -0.112, 0.016, -1.056, 17:11:20.347
13, 0.00, 0.00, -1063.76, -310.15, -0.112, 0.016, -1.056, 17:11:20.347
14, 0.00, 0.00, -1088.99, -298.12, -0.112, 0.016, -1.056, 17:11:20.347
17, 0.00, 0.00, -1194.94, -418.90, -0.112, 0.016, -1.056, 17:11:20.369
18, 0.00, 0.00, -1204.74, -403.48, -0.112, 0.016, -1.056, 17:11:20.369
19, 0.00, 0.00, -1102.03, -280.92, -0.112, 0.016, -1.056, 17:11:20.370
20, 0.00, 0.00, -1082.65, -298.93, -0.112, 0.016, -1.056, 17:11:20.370
21, 0.00, 0.00, -1192.41, -423.03, -0.112, 0.016, -1.056, 17:11:20.392
22, 0.00, 0.00, -1206.95, -403.86, -0.112, 0.016, -1.056, 17:11:20.392
23, 0.00, 0.00, -1105.07, -283.22, -0.112, 0.016, -1.056, 17:11:20.392
24, 0.00, 0.00, -1103.30, -320.87, -0.112, 0.016, -1.056, 17:11:20.392
25, 0.00, 0.00, -1180.11, -429.92, -0.112, 0.016, -1.056, 17:11:20.414
26, 0.00, 0.00, -1192.24, -387.51, -0.112, 0.016, -1.056, 17:11:20.414
27, 0.00, 0.00, -1087.87, -268.19, -0.112, 0.016, -1.056, 17:11:20.415
28, 0.00, 0.00, -1082.66, -298.66, -0.112, 0.016, -1.056, 17:11:20.415
31, 0.00, 0.00, -970.25, -165.18, -0.112, 0.016, -1.056, 17:11:20.437
32, 0.00, 0.00, -968.81, -207.93, -0.112, 0.016, -1.056, 17:11:20.437
33, 0.00, 0.00, -1072.95, -330.09, -0.112, 0.016, -1.056, 17:11:20.437
34, 0.00, 0.00, -1088.77, -294.82, -0.112, 0.016, -1.056, 17:11:20.437
35, 0.00, 0.00, -983.42, -178.20, -0.112, 0.016, -1.056, 17:11:20.459
36, 0.00, 0.00, -948.90, -192.34, -0.112, 0.016, -1.056, 17:11:20.459
37, 0.00, 0.00, -1053.55, -309.62, -0.112, 0.016, -1.056, 17:11:20.459
38, 0.00, 0.00, -1067.90, -287.95, -0.112, 0.016, -1.056, 17:11:20.460
39, 0.00, 0.00, -973.31, -173.06, -0.112, 0.016, -1.056, 17:11:20.481
40, 0.00, 0.00, -956.11, -189.99, -0.112, 0.016, -1.056, 17:11:20.482
41, 0.00, 0.00, -1063.73, -311.62, -0.112, 0.016, -1.056, 17:11:20.482
42, 0.00, 0.00, -1075.43, -295.99, -0.112, 0.016, -1.056, 17:11:20.482
43, 0.00, 0.00, -974.95, -174.23, -0.112, 0.016, -1.056, 17:11:20.504
44, 0.00, 0.00, -955.03, -185.36, -0.112, 0.016, -1.056, 17:11:20.504
45, 0.00, 0.00, -1065.91, -313.41, -0.112, 0.016, -1.056, 17:11:20.505
46, 0.00, 0.00, -1083.88, -301.47, -0.112, 0.016, -1.056, 17:11:20.505
49, 0.00, 0.00, -1188.16, -430.11, -0.112, 0.016, -1.056, 17:11:20.527
50, 0.00, 0.00, -1207.43, -409.45, -0.112, 0.016, -1.056, 17:11:20.527
51, 0.00, 0.00, -1092.72, -274.90, -0.112, 0.016, -1.056, 17:11:20.527
52, 0.00, 0.00, -1079.48, -296.68, -0.112, 0.016, -1.056, 17:11:20.527
53, 0.00, 0.00, -1189.45, -416.13, -0.112, 0.016, -1.056, 17:11:20.549
54, 0.00, 0.00, -1200.70, -400.87, -0.112, 0.016, -1.056, 17:11:20.549
55, 0.00, 0.00, -1092.48, -278.73, -0.112, 0.016, -1.056, 17:11:20.550
56, 0.00, 0.00, -1079.51, -303.06, -0.112, 0.016, -1.056, 17:11:20.550
57, 0.00, 0.00, -1193.45, -429.43, -0.112, 0.016, -1.056, 17:11:20.571
58, 0.00, 0.00, -1195.43, -390.41, -0.112, 0.016, -1.056, 17:11:20.572
59, 0.00, 0.00, -1095.63, -284.37, -0.112, 0.016, -1.056, 17:11:20.572
60, 0.00, 0.00, -1083.03, -302.55, -0.112, 0.016, -1.056, 17:11:20.573
61, 0.00, 0.00, -1188.25, -419.92, -0.112, 0.016, -1.056, 17:11:20.594
62, 0.00, 0.00, -1213.95, -408.75, -0.112, 0.016, -1.056, 17:11:20.595
63, 0.00, 0.00, -1097.02, -281.35, -0.112, 0.016, -1.056, 17:11:20.595
64, 0.00, 0.00, -1079.68, -298.87, -0.112, 0.016, -1.056, 17:11:20.595
67, 0.00, 0.00, -971.47, -177.98, -0.112, 0.016, -1.056, 17:11:20.618
68, 0.00, 0.00, -959.75, -191.52, -0.112, 0.016, -1.056, 17:11:20.618
69, 0.00, 0.00, -1047.32, -296.60, -0.112, 0.016, -1.056, 17:11:20.618
70, 0.00, 0.00, -1074.98, -291.96, -0.112, 0.016, -1.056, 17:11:20.619
71, 0.00, 0.00, -970.60, -176.28, -0.112, 0.016, -1.056, 17:11:20.639
72, 0.00, 0.00, -954.09, -185.19, -0.112, 0.016, -1.056, 17:11:20.639
73, 0.00, 0.00, -1058.95, -312.17, -0.112, 0.016, -1.056, 17:11:20.640
74, 0.00, 0.00, -1070.07, -286.60, -0.112, 0.016, -1.056, 17:11:20.640
75, 0.00, 0.00, -960.97, -164.76, -0.112, 0.016, -1.056, 17:11:20.662
76, 0.00, 0.00, -955.69, -189.34, -0.112, 0.016, -1.056, 17:11:20.662
77, 0.00, 0.00, -1066.51, -322.27, -0.112, 0.016, -1.056, 17:11:20.663
78, 0.00, 0.00, -1077.56, -292.56, -0.112, 0.016, -1.056, 17:11:20.663
79, 0.00, 0.00, -969.59, -161.90, -0.112, 0.016, -1.056, 17:11:20.684
80, 0.00, 0.00, -946.40, -184.51, -0.112, 0.016, -1.056, 17:11:20.684
81, 0.00, 0.00, -1052.34, -312.49, -0.112, 0.016, -1.056, 17:11:20.684
82, 0.00, 0.00, -1063.78, -287.48, -0.112, 0.016, -1.056, 17:11:20.684
85, 0.00, 0.00, -1171.01, -402.86, -0.112, 0.016, -1.056, 17:11:20.706
86, 0.00, 0.00, -1184.78, -382.09, -0.112, 0.016, -1.056, 17:11:20.707
87, 0.00, 0.00, -1074.17, -252.24, -0.112, 0.016, -1.056, 17:11:20.707
88, 0.00, 0.00, -1052.37, -276.55, -0.112, 0.016, -1.056, 17:11:20.707
89, 0.00, 0.00, -1169.52, -409.16, -0.112, 0.016, -1.056, 17:11:20.729
90, 0.00, 0.00, -1189.26, -387.57, -0.112, 0.016, -1.056, 17:11:20.729
91, 0.00, 0.00, -1079.13, -262.67, -0.112, 0.016, -1.056, 17:11:20.730
92, 0.00, 0.00, -1061.00, -276.67, -0.112, 0.016, -1.056, 17:11:20.730
93, 0.00, 0.00, -1177.27, -412.80, -0.112, 0.016, -1.056, 17:11:20.751
94, 0.00, 0.00, -1188.84, -383.82, -0.112, 0.016, -1.056, 17:11:20.752
95, 0.00, 0.00, -1074.25, -258.56, -0.112, 0.016, -1.056, 17:11:20.752
96, 0.00, 0.00, -1053.43, -266.28, -0.112, 0.016, -1.056, 17:11:20.752
97, 0.00, 0.00, -1168.37, -409.27, -0.112, 0.016, -1.056, 17:11:20.774
98, 0.00, 0.00, -1183.45, -386.00, -0.112, 0.016, -1.056, 17:11:20.774
99, 0.00, 0.00, -1081.00, -260.74, -0.112, 0.016, -1.056, 17:11:20.775
100, 0.00, 0.00, -1061.87, -279.25, -0.112, 0.016, -1.056, 17:11:20.775
103, 0.00, 0.00, -945.86, -151.82, -0.112, 0.016, -1.056, 17:11:20.797
104, 0.00, 0.00, -957.41, -198.85, -0.112, 0.016, -1.056, 17:11:20.797
105, 0.00, 0.00, -1034.13, -287.21, -0.112, 0.016, -1.056, 17:11:20.797
106, 0.00, 0.00, -1019.85, -253.14, -0.112, 0.016, -1.056, 17:11:20.797
107, 0.00, 0.00, -912.23, -118.29, -0.112, 0.016, -1.056, 17:11:20.819
108, 0.00, 0.00, -906.96, -144.89, -0.112, 0.016, -1.056, 17:11:20.819
109, 0.00, 0.00, -1013.66, -268.74, -0.112, 0.016, -1.056, 17:11:20.820
110, 0.00, 0.00, -1024.06, -245.57, -0.112, 0.016, -1.056, 17:11:20.821
111, 0.00, 0.00, -914.05, -122.53, -0.112, 0.016, -1.056, 17:11:20.845
112, 0.00, 0.00, -920.85, -157.29, -0.112, 0.016, -1.056, 17:11:20.845
113, 0.00, 0.00, -1030.29, -274.77, -0.112, 0.016, -1.056, 17:11:20.845
114, 0.00, 0.00, -1058.78, -271.60, -0.112, 0.016, -1.056, 17:11:20.845
115, 0.00, 0.00, -944.71, -140.22, -0.112, 0.016, -1.056, 17:11:20.867
116, 0.00, 0.00, -928.41, -166.94, -0.112, 0.016, -1.056, 17:11:20.867
117, 0.00, 0.00, -1041.97, -292.92, -0.112, 0.016, -1.056, 17:11:20.867
118, 0.00, 0.00, -1049.61, -266.42, -0.112, 0.016, -1.056, 17:11:20.867
121, 0.00, 0.00, -1153.01, -388.23, -0.112, 0.016, -1.056, 17:11:20.887
122, 0.00, 0.00, -1174.41, -374.82, -0.112, 0.016, -1.056, 17:11:20.887
123, 0.00, 0.00, -1069.75, -252.82, -0.112, 0.016, -1.056, 17:11:20.888
124, 0.00, 0.00, -1056.04, -275.91, -0.112, 0.016, -1.056, 17:11:20.888
125, 0.00, 0.00, -1164.29, -396.11, -0.112, 0.016, -1.056, 17:11:20.909
126, 0.00, 0.00, -1173.58, -366.69, -0.112, 0.016, -1.056, 17:11:20.909
127, 0.00, 0.00, -1054.48, -241.06, -0.112, 0.016, -1.056, 17:11:20.909
128, 0.00, 0.00, -1039.48, -266.14, -0.112, 0.016, -1.056, 17:11:20.910
129, 0.00, 0.00, -1159.54, -401.15, -0.112, 0.016, -1.056, 17:11:20.932
130, 0.00, 0.00, -1176.85, -376.65, -0.112, 0.016, -1.056, 17:11:20.932
131, 0.00, 0.00, -1058.06, -246.85, -0.112, 0.016, -1.056, 17:11:20.932
132, 0.00, 0.00, -1052.02, -277.96, -0.112, 0.016, -1.056, 17:11:20.932
133, 0.00, 0.00, -1153.82, -401.12, -0.112, 0.016, -1.056, 17:11:20.954
134, 0.00, 0.00, -1166.50, -371.29, -0.112, 0.016, -1.056, 17:11:20.954
135, 0.00, 0.00, -1070.57, -253.61, -0.112, 0.016, -1.056, 17:11:20.955
136, 0.00, 0.00, -1054.63, -270.94, -0.112, 0.016, -1.056, 17:11:20.955
139, 0.00, 0.00, -938.36, -143.00, -0.112, 0.016, -1.056, 17:11:20.977
140, 0.00, 0.00, -932.87, -172.94, -0.112, 0.016, -1.056, 17:11:20.977
141, 0.00, 0.00, -1054.18, -299.03, -0.112, 0.016, -1.056, 17:11:20.977
142, 0.00, 0.00, -1057.21, -274.99, -0.112, 0.016, -1.056, 17:11:20.978
143, 0.00, 0.00, -956.21, -152.84, -0.112, 0.016, -1.056, 17:11:20.999
144, 0.00, 0.00, -945.13, -176.01, -0.112, 0.016, -1.056, 17:11:20.999
145, 0.00, 0.00, -1034.45, -286.66, -0.112, 0.016, -1.056, 17:11:21.000
146, 0.00, 0.00, -1052.40, -272.84, -0.112, 0.016, -1.056, 17:11:21.000
147, 0.00, 0.00, -951.57, -157.62, -0.112, 0.016, -1.056, 17:11:21.023
148, 0.00, 0.00, -934.15, -167.83, -0.112, 0.016, -1.056, 17:11:21.023
149, 0.00, 0.00, -1022.83, -269.94, -0.112, 0.016, -1.056, 17:11:21.023
150, 0.00, 0.00, -1055.95, -274.22, -0.112, 0.016, -1.056, 17:11:21.023
151, 0.00, 0.00, -949.66, -151.65, -0.112, 0.016, -1.056, 17:11:21.044
152, 0.00, 0.00, -929.15, -158.66, -0.112, 0.016, -1.056, 17:11:21.044
153, 0.00, 0.00, -1039.14, -291.18, -0.112, 0.016, -1.056, 17:11:21.045
154, 0.00, 0.00, -1056.73, -277.13, -0.112, 0.016, -1.056, 17:11:21.045
157, 0.00, 0.00, -1180.44, -411.84, -0.112, 0.016, -1.056, 17:11:21.066
158, 0.00, 0.00, -1170.02, -361.88, -0.112, 0.016, -1.056, 17:11:21.067
159, 0.00, 0.00, -1058.80, -232.75, -0.112, 0.016, -1.056, 17:11:21.067
160, 0.00, 0.00, -1056.30, -268.41, -0.112, 0.016, -1.056, 17:11:21.067
161, 0.00, 0.00, -1174.46, -394.04, -0.112, 0.016, -1.056, 17:11:21.090
162, 0.00, 0.00, -1194.62, -386.97, -0.112, 0.016, -1.056, 17:11:21.091
163, 0.00, 0.00, -1070.23, -255.79, -0.112, 0.016, -1.056, 17:11:21.091
164, 0.00, 0.00, -1064.50, -286.85, -0.112, 0.016, -1.056, 17:11:21.091
165, 0.00, 0.00, -1163.20, -400.24, -0.112, 0.016, -1.056, 17:11:21.112
166, 0.00, 0.00, -1184.14, -385.10, -0.112, 0.016, -1.056, 17:11:21.112
167, 0.00, 0.00, -1080.54, -259.89, -0.112, 0.016, -1.056, 17:11:21.112
168, 0.00, 0.00, -1059.06, -279.95, -0.112, 0.016, -1.056, 17:11:21.112
169, 0.00, 0.00, -1169.43, -398.42, -0.112, 0.016, -1.056, 17:11:21.134
170, 0.00, 0.00, -1172.76, -370.15, -0.112, 0.016, -1.056, 17:11:21.134
171, 0.00, 0.00, -1071.20, -262.20, -0.112, 0.016, -1.056, 17:11:21.134
172, 0.00, 0.00, -1052.31, -274.05, -0.112, 0.016, -1.056, 17:11:21.135
175, 0.00, 0.00, -945.15, -155.25, -0.112, 0.016, -1.056, 17:11:21.156
176, 0.00, 0.00, -925.08, -170.49, -0.112, 0.016, -1.056, 17:11:21.157
177, 0.00, 0.00, -1026.75, -287.57, -0.112, 0.016, -1.056, 17:11:21.157
178, 0.00, 0.00, -1051.16, -287.18, -0.112, 0.016, -1.056, 17:11:21.157
179, 0.00, 0.00, -948.53, -174.14, -0.112, 0.016, -1.056, 17:11:21.180
180, 0.00, 0.00, -909.22, -172.49, -0.112, 0.016, -1.056, 17:11:21.180
181, 0.00, 0.00, -1008.60, -295.31, -0.112, 0.016, -1.056, 17:11:21.180
182, 0.00, 0.00, -1041.61, -273.13, -0.112, 0.016, -1.056, 17:11:21.180
183, 0.00, 0.00, -943.66, -153.06, -0.112, 0.016, -1.056, 17:11:21.202
184, 0.00, 0.00, -904.01, -154.95, -0.112, 0.016, -1.056, 17:11:21.202
185, 0.00, 0.00, -1030.83, -295.68, -0.112, 0.016, -1.056, 17:11:21.202
186, 0.00, 0.00, -1059.89, -283.18, -0.112, 0.016, -1.056, 17:11:21.202
187, 0.00, 0.00, -931.48, -149.45, -0.112, 0.016, -1.056, 17:11:21.225
188, 0.00, 0.00, -923.84, -179.01, -0.112, 0.016, -1.056, 17:11:21.225
189, 0.00, 0.00, -1042.01, -308.24, -0.112, 0.016, -1.056, 17:11:21.225
190, 0.00, 0.00, -1031.98, -263.21, -0.112, 0.016, -1.056, 17:11:21.225
193, 0.00, 0.00, -1143.92, -386.58, -0.112, 0.016, -1.056, 17:11:21.246
194, 0.00, 0.00, -1128.21, -337.47, -0.112, 0.016, -1.056, 17:11:21.246
195, 0.00, 0.00, -1034.51, -238.75, -0.112, 0.016, -1.056, 17:11:21.247
196, 0.00, 0.00, -1017.55, -256.94, -0.112, 0.016, -1.056, 17:11:21.247
197, 0.00, 0.00, -1122.77, -380.21, -0.112, 0.016, -1.056, 17:11:21.269
198, 0.00, 0.00, -1134.49, -348.65, -0.112, 0.016, -1.056, 17:11:21.269
199, 0.00, 0.00, -1048.56, -247.55, -0.112, 0.016, -1.056, 17:11:21.269
200, 0.00, 0.00, -1018.11, -253.63, -0.112, 0.016, -1.056, 17:11:21.270
1, 0.00, 0.00, -1066.94, -260.74, -0.112, 0.016, -1.056, 17:11:21.292
2, 0.00, 0.00, -945.15, -134.98, -0.112, 0.016, -1.056, 17:11:21.292
3, 0.00, 0.00, -863.09, -94.73, -0.112, 0.016, -1.056, 17:11:21.292
4, 0.00, 0.00, -996.26, -223.58, -0.112, 0.016, -1.056, 17:11:21.292
5, 0.00, 0.00, -1036.04, -238.84, -0.112, 0.016, -1.056, 17:11:21.314
6, 0.00, 0.00, -942.67, -124.81, -0.112, 0.016, -1.056, 17:11:21.314
7, 0.00, 0.00, -993.19, -228.17, -0.112, 0.016, -1.056, 17:11:21.314
8, 0.00, 0.00, -1016.33, -249.47, -0.112, 0.016, -1.056, 17:11:21.315
9, 0.00, 0.00, -987.01, -171.49, -0.112, 0.016, -1.056, 17:11:21.336
10, 0.00, 0.00, -869.70, -55.76, -0.112, 0.016, -1.056, 17:11:21.336
11, 0.00, 0.00, -865.53, -88.27, -0.112, 0.016, -1.056, 17:11:21.337
12, 0.00, 0.00, -988.92, -226.66, -0.112, 0.016, -1.056, 17:11:21.337
13, 0.00, 0.00, -987.65, -187.97, -0.112, 0.016, -1.056, 17:11:21.359
14, 0.00, 0.00, -893.86, -82.45, -0.112, 0.016, -1.056, 17:11:21.359
15, 0.00, 0.00, -904.16, -129.57, -0.112, 0.016, -1.056, 17:11:21.359
16, 0.00, 0.00, -1000.23, -234.52, -0.112, 0.016, -1.056, 17:11:21.360
19, 0.00, 0.00, -973.08, -239.20, -0.112, 0.016, -1.056, 17:11:21.381
20, 0.00, 0.00, -1092.18, -380.39, -0.112, 0.016, -1.056, 17:11:21.382
21, 0.00, 0.00, -1076.14, -330.31, -0.112, 0.016, -1.056, 17:11:21.382
22, 0.00, 0.00, -982.62, -220.90, -0.112, 0.016, -1.056, 17:11:21.383
23, 0.00, 0.00, -977.26, -254.53, -0.112, 0.016, -1.056, 17:11:21.404
24, 0.00, 0.00, -1086.26, -373.59, -0.112, 0.016, -1.056, 17:11:21.404
25, 0.00, 0.00, -1105.40, -342.07, -0.112, 0.016, -1.056, 17:11:21.405
26, 0.00, 0.00, -1003.33, -236.29, -0.112, 0.016, -1.056, 17:11:21.405
27, 0.00, 0.00, -959.81, -241.31, -0.112, 0.016, -1.056, 17:11:21.427
28, 0.00, 0.00, -1100.18, -388.94, -0.112, 0.016, -1.056, 17:11:21.427
29, 0.00, 0.00, -1094.31, -347.39, -0.112, 0.016, -1.056, 17:11:21.427
30, 0.00, 0.00, -997.75, -245.38, -0.112, 0.016, -1.056, 17:11:21.427
31, 0.00, 0.00, -997.46, -272.96, -0.112, 0.016, -1.056, 17:11:21.449
32, 0.00, 0.00, -1092.77, -385.13, -0.112, 0.016, -1.056, 17:11:21.449
33, 0.00, 0.00, -1073.95, -331.23, -0.112, 0.016, -1.056, 17:11:21.450
34, 0.00, 0.00, -980.64, -220.83, -0.112, 0.016, -1.056, 17:11:21.451
37, 0.00, 0.00, -1004.52, -199.18, -0.112, 0.016, -1.056, 17:11:21.472
38, 0.00, 0.00, -878.33, -66.95, -0.112, 0.016, -1.056, 17:11:21.472
39, 0.00, 0.00, -868.30, -95.20, -0.112, 0.016, -1.056, 17:11:21.472
40, 0.00, 0.00, -1000.09, -238.24, -0.112, 0.016, -1.056, 17:11:21.472
41, 0.00, 0.00, -1009.07, -218.13, -0.112, 0.016, -1.056, 17:11:21.494
42, 0.00, 0.00, -889.77, -73.63, -0.112, 0.016, -1.056, 17:11:21.495
43, 0.00, 0.00, -867.00, -96.95, -0.112, 0.016, -1.056, 17:11:21.495
44, 0.00, 0.00, -982.06, -227.34, -0.112, 0.016, -1.056, 17:11:21.495
45, 0.00, 0.00, -988.25, -184.30, -0.112, 0.016, -1.056, 17:11:21.516
46, 0.00, 0.00, -883.06, -61.10, -0.112, 0.016, -1.056, 17:11:21.517
47, 0.00, 0.00, -877.89, -93.41, -0.112, 0.016, -1.056, 17:11:21.517
48, 0.00, 0.00, -1000.38, -229.83, -0.112, 0.016, -1.056, 17:11:21.517
49, 0.00, 0.00, -979.36, -194.17, -0.112, 0.016, -1.056, 17:11:21.539
50, 0.00, 0.00, -876.52, -60.29, -0.112, 0.016, -1.056, 17:11:21.540
51, 0.00, 0.00, -857.63, -79.20, -0.112, 0.016, -1.056, 17:11:21.540
52, 0.00, 0.00, -973.04, -205.44, -0.112, 0.016, -1.056, 17:11:21.541
55, 0.00, 0.00, -979.30, -249.92, -0.112, 0.016, -1.056, 17:11:21.562
56, 0.00, 0.00, -1081.71, -367.20, -0.112, 0.016, -1.056, 17:11:21.562
57, 0.00, 0.00, -1097.01, -334.11, -0.112, 0.016, -1.056, 17:11:21.562
58, 0.00, 0.00, -985.19, -214.63, -0.112, 0.016, -1.056, 17:11:21.562
59, 0.00, 0.00, -961.25, -240.92, -0.112, 0.016, -1.056, 17:11:21.584
60, 0.00, 0.00, -1065.05, -351.55, -0.112, 0.016, -1.056, 17:11:21.584
61, 0.00, 0.00, -1087.67, -341.54, -0.112, 0.016, -1.056, 17:11:21.585
62, 0.00, 0.00, -979.26, -221.53, -0.112, 0.016, -1.056, 17:11:21.585
63, 0.00, 0.00, -979.05, -252.84, -0.112, 0.016, -1.056, 17:11:21.607
64, 0.00, 0.00, -1082.50, -361.99, -0.112, 0.016, -1.056, 17:11:21.607
65, 0.00, 0.00, -1093.10, -343.22, -0.112, 0.016, -1.056, 17:11:21.607
66, 0.00, 0.00, -988.13, -218.44, -0.112, 0.016, -1.056, 17:11:21.607
67, 0.00, 0.00, -965.28, -244.43, -0.112, 0.016, -1.056, 17:11:21.629
68, 0.00, 0.00, -1085.59, -379.72, -0.112, 0.016, -1.056, 17:11:21.629
69, 0.00, 0.00, -1095.16, -339.11, -0.112, 0.016, -1.056, 17:11:21.630
70, 0.00, 0.00, -969.37, -206.06, -0.112, 0.016, -1.056, 17:11:21.630
73, 0.00, 0.00, -984.54, -177.77, -0.112, 0.016, -1.056, 17:11:21.652
74, 0.00, 0.00, -873.59, -41.57, -0.112, 0.016, -1.056, 17:11:21.652
75, 0.00, 0.00, -855.79, -62.34, -0.112, 0.016, -1.056, 17:11:21.652
76, 0.00, 0.00, -968.64, -190.24, -0.112, 0.016, -1.056, 17:11:21.652
77, 0.00, 0.00, -966.60, -150.64, -0.112, 0.016, -1.056, 17:11:21.674
78, 0.00, 0.00, -843.87, -28.23, -0.112, 0.016, -1.056, 17:11:21.675
79, 0.00, 0.00, -843.68, -58.07, -0.112, 0.016, -1.056, 17:11:21.675
80, 0.00, 0.00, -966.48, -191.22, -0.112, 0.016, -1.056, 17:11:21.675
81, 0.00, 0.00, -985.67, -165.18, -0.112, 0.016, -1.056, 17:11:21.697
82, 0.00, 0.00, -853.66, -34.99, -0.112, 0.016, -1.056, 17:11:21.697
83, 0.00, 0.00, -838.94, -54.88, -0.112, 0.016, -1.056, 17:11:21.697
84, 0.00, 0.00, -956.81, -188.63, -0.112, 0.016, -1.056, 17:11:21.697
85, 0.00, 0.00, -993.96, -181.27, -0.112, 0.016, -1.056, 17:11:21.719
86, 0.00, 0.00, -863.88, -45.61, -0.112, 0.016, -1.056, 17:11:21.719
87, 0.00, 0.00, -854.83, -72.42, -0.112, 0.016, -1.056, 17:11:21.720
88, 0.00, 0.00, -961.07, -186.55, -0.112, 0.016, -1.056, 17:11:21.721
91, 0.00, 0.00, -973.79, -231.93, -0.112, 0.016, -1.056, 17:11:21.742
92, 0.00, 0.00, -1079.27, -348.19, -0.112, 0.016, -1.056, 17:11:21.742
93, 0.00, 0.00, -1068.67, -309.67, -0.112, 0.016, -1.056, 17:11:21.742
94, 0.00, 0.00, -970.60, -188.55, -0.112, 0.016, -1.056, 17:11:21.743
95, 0.00, 0.00, -949.30, -213.60, -0.112, 0.016, -1.056, 17:11:21.764
96, 0.00, 0.00, -1063.35, -331.85, -0.112, 0.016, -1.056, 17:11:21.764
97, 0.00, 0.00, -1077.82, -306.19, -0.112, 0.016, -1.056, 17:11:21.764
98, 0.00, 0.00, -970.21, -192.66, -0.112, 0.016, -1.056, 17:11:21.765
99, 0.00, 0.00, -967.48, -226.40, -0.112, 0.016, -1.056, 17:11:21.787
100, 0.00, 0.00, -1065.62, -336.50, -0.112, 0.016, -1.056, 17:11:21.787
101, 0.00, 0.00, -1077.86, -303.31, -0.112, 0.016, -1.056, 17:11:21.788
102, 0.00, 0.00, -975.75, -195.10, -0.112, 0.016, -1.056, 17:11:21.788
103, 0.00, 0.00, -964.14, -227.94, -0.112, 0.016, -1.056, 17:11:21.809
104, 0.00, 0.00, -1072.82, -345.39, -0.112, 0.016, -1.056, 17:11:21.810
105, 0.00, 0.00, -1081.03, -311.54, -0.112, 0.016, -1.056, 17:11:21.810
106, 0.00, 0.00, -983.67, -203.77, -0.112, 0.016, -1.056, 17:11:21.810
109, 0.00, 0.00, -978.10, -173.21, -0.112, 0.016, -1.056, 17:11:21.832
110, 0.00, 0.00, -875.58, -50.75, -0.112, 0.016, -1.056, 17:11:21.832
111, 0.00, 0.00, -866.97, -77.72, -0.112, 0.016, -1.056, 17:11:21.833
112, 0.00, 0.00, -969.50, -200.26, -0.112, 0.016, -1.056, 17:11:21.833
113, 0.00, 0.00, -962.13, -149.34, -0.112, 0.016, -1.056, 17:11:21.854
114, 0.00, 0.00, -855.99, -25.69, -0.112, 0.016, -1.056, 17:11:21.854
115, 0.00, 0.00, -852.04, -68.94, -0.112, 0.016, -1.056, 17:11:21.855
116, 0.00, 0.00, -973.63, -195.57, -0.112, 0.016, -1.056, 17:11:21.855
117, 0.00, 0.00, -1009.23, -187.81, -0.112, 0.016, -1.056, 17:11:21.877
118, 0.00, 0.00, -869.78, -31.49, -0.112, 0.016, -1.056, 17:11:21.877
119, 0.00, 0.00, -840.71, -47.72, -0.112, 0.016, -1.056, 17:11:21.878
120, 0.00, 0.00, -944.35, -164.91, -0.112, 0.016, -1.056, 17:11:21.878
121, 0.00, 0.00, -927.92, -114.22, -0.112, 0.016, -1.056, 17:11:21.899
122, 0.00, 0.00, -844.31, -8.95, -0.112, 0.016, -1.056, 17:11:21.899
123, 0.00, 0.00, -834.60, -46.96, -0.112, 0.016, -1.056, 17:11:21.899
124, 0.00, 0.00, -938.76, -164.14, -0.112, 0.016, -1.056, 17:11:21.900
127, 0.00, 0.00, -932.68, -203.54, -0.112, 0.016, -1.056, 17:11:21.922
128, 0.00, 0.00, -1027.27, -303.33, -0.112, 0.016, -1.056, 17:11:21.922
129, 0.00, 0.00, -1050.55, -291.50, -0.112, 0.016, -1.056, 17:11:21.922
130, 0.00, 0.00, -922.29, -155.08, -0.112, 0.016, -1.056, 17:11:21.922
131, 0.00, 0.00, -952.36, -217.76, -0.112, 0.016, -1.056, 17:11:21.944
132, 0.00, 0.00, -1064.46, -344.76, -0.112, 0.016, -1.056, 17:11:21.945
133, 0.00, 0.00, -1077.69, -318.99, -0.112, 0.016, -1.056, 17:11:21.945
134, 0.00, 0.00, -928.91, -160.72, -0.112, 0.016, -1.056, 17:11:21.945
135, 0.00, 0.00, -960.22, -232.26, -0.112, 0.016, -1.056, 17:11:21.967
136, 0.00, 0.00, -1036.43, -309.79, -0.112, 0.016, -1.056, 17:11:21.967
137, 0.00, 0.00, -1022.34, -256.47, -0.112, 0.016, -1.056, 17:11:21.967
138, 0.00, 0.00, -963.03, -188.66, -0.112, 0.016, -1.056, 17:11:21.967
139, 0.00, 0.00, -911.60, -182.63, -0.112, 0.016, -1.056, 17:11:21.989
140, 0.00, 0.00, -1004.26, -260.86, -0.112, 0.016, -1.056, 17:11:21.989
141, 0.00, 0.00, -1033.78, -282.16, -0.112, 0.016, -1.056, 17:11:21.990
142, 0.00, 0.00, -838.02, -94.93, -0.112, 0.016, -1.056, 17:11:21.990
145, 0.00, 0.00, -759.40, 21.96, -0.112, 0.016, -1.056, 17:11:22.012
146, 0.00, 0.00, -661.84, 115.21, -0.112, 0.016, -1.056, 17:11:22.012
147, 0.00, 0.00, -653.25, 77.53, -0.112, 0.016, -1.056, 17:11:22.013
148, 0.00, 0.00, -722.91, -25.12, -0.112, 0.016, -1.056, 17:11:22.013
149, 0.00, 0.00, -728.26, 11.54, -0.112, 0.016, -1.056, 17:11:22.034
150, 0.00, 0.00, -648.26, 96.39, -0.112, 0.016, -1.056, 17:11:22.034
151, 0.00, 0.00, -603.14, 87.41, -0.112, 0.016, -1.056, 17:11:22.035
152, 0.00, 0.00, -765.01, -74.52, -0.112, 0.016, -1.056, 17:11:22.035
153, 0.00, 0.00, -771.96, -47.70, -0.112, 0.016, -1.056, 17:11:22.057
154, 0.00, 0.00, -710.55, 36.03, -0.112, 0.016, -1.056, 17:11:22.057
155, 0.00, 0.00, -726.80, -11.29, -0.112, 0.016, -1.056, 17:11:22.057
156, 0.00, 0.00, -867.94, -146.23, -0.112, 0.016, -1.056, 17:11:22.058
157, 0.00, 0.00, -914.09, -154.86, -0.112, 0.016, -1.056, 17:11:22.080
158, 0.00, 0.00, -846.55, -60.36, -0.112, 0.016, -1.056, 17:11:22.080
159, 0.00, 0.00, -857.57, -112.03, -0.112, 0.016, -1.056, 17:11:22.080
160, 0.00, 0.00, -986.34, -242.62, -0.112, 0.016, -1.056, 17:11:22.080
163, 0.00, 0.00, -982.11, -274.73, -0.112, 0.016, -1.056, 17:11:22.102
164, 0.00, 0.00, -1117.01, -417.39, -0.112, 0.016, -1.056, 17:11:22.102
165, 0.00, 0.00, -1126.77, -387.81, -0.112, 0.016, -1.056, 17:11:22.102
166, 0.00, 0.00, -986.33, -244.49, -0.112, 0.016, -1.056, 17:11:22.102
167, 0.00, 0.00, -995.64, -294.55, -0.112, 0.016, -1.056, 17:11:22.124
168, 0.00, 0.00, -1117.31, -412.80, -0.112, 0.016, -1.056, 17:11:22.125
169, 0.00, 0.00, -1113.90, -374.26, -0.112, 0.016, -1.056, 17:11:22.125
170, 0.00, 0.00, -1011.84, -257.52, -0.112, 0.016, -1.056, 17:11:22.125
171, 0.00, 0.00, -994.34, -283.96, -0.112, 0.016, -1.056, 17:11:22.147
172, 0.00, 0.00, -1111.49, -407.37, -0.112, 0.016, -1.056, 17:11:22.147
173, 0.00, 0.00, -1105.23, -366.00, -0.112, 0.016, -1.056, 17:11:22.147
174, 0.00, 0.00, -998.17, -247.18, -0.112, 0.016, -1.056, 17:11:22.147
175, 0.00, 0.00, -979.22, -265.82, -0.112, 0.016, -1.056, 17:11:22.169
176, 0.00, 0.00, -1100.76, -394.08, -0.112, 0.016, -1.056, 17:11:22.169
177, 0.00, 0.00, -1109.43, -358.60, -0.112, 0.016, -1.056, 17:11:22.169
178, 0.00, 0.00, -985.78, -230.20, -0.112, 0.016, -1.056, 17:11:22.169
181, 0.00, 0.00, -999.49, -197.13, -0.112, 0.016, -1.056, 17:11:22.192
182, 0.00, 0.00, -883.87, -70.02, -0.112, 0.016, -1.056, 17:11:22.193
183, 0.00, 0.00, -875.55, -98.75, -0.112, 0.016, -1.056, 17:11:22.193
184, 0.00, 0.00, -974.73, -214.17, -0.112, 0.016, -1.056, 17:11:22.193
185, 0.00, 0.00, -980.73, -186.41, -0.112, 0.016, -1.056, 17:11:22.214
186, 0.00, 0.00, -872.07, -63.22, -0.112, 0.016, -1.056, 17:11:22.215
187, 0.00, 0.00, -858.48, -91.05, -0.112, 0.016, -1.056, 17:11:22.215
188, 0.00, 0.00, -973.01, -213.08, -0.112, 0.016, -1.056, 17:11:22.215
189, 0.00, 0.00, -957.40, -165.02, -0.112, 0.016, -1.056, 17:11:22.237
190, 0.00, 0.00, -866.87, -60.51, -0.112, 0.016, -1.056, 17:11:22.237
191, 0.00, 0.00, -856.38, -105.41, -0.112, 0.016, -1.056, 17:11:22.237
192, 0.00, 0.00, -983.34, -222.68, -0.112, 0.016, -1.056, 17:11:22.237
193, 0.00, 0.00, -971.75, -176.50, -0.112, 0.016, -1.056, 17:11:22.259
194, 0.00, 0.00, -853.46, -56.19, -0.112, 0.016, -1.056, 17:11:22.259
195, 0.00, 0.00, -870.61, -103.71, -0.112, 0.016, -1.056, 17:11:22.260
196, 0.00, 0.00, -990.79, -226.20, -0.112, 0.016, -1.056, 17:11:22.260
199, 0.00, 0.00, -968.58, -260.58, -0.112, 0.016, -1.056, 17:11:22.282
200, 0.00, 0.00, -1086.58, -371.88, -0.112, 0.016, -1.056, 17:11:22.282
0, 0.00, 0.00, -1106.73, -279.20, -0.112, 0.016, -1.056, 17:11:22.282
1, 0.00, 0.00, -987.01, -142.37, -0.112, 0.016, -1.056, 17:11:22.304
2, 0.00, 0.00, -1013.61, -212.23, -0.112, 0.016, -1.056, 17:11:22.304
3, 0.00, 0.00, -1111.17, -339.31, -0.112, 0.016, -1.056, 17:11:22.304
4, 0.00, 0.00, -1150.29, -298.60, -0.112, 0.016, -1.056, 17:11:22.305
7, 0.00, 0.00, -1261.97, -414.54, -0.112, 0.016, -1.056, 17:11:22.326
8, 0.00, 0.00, -1252.25, -359.33, -0.112, 0.016, -1.056, 17:11:22.327
9, 0.00, 0.00, -1169.77, -267.54, -0.112, 0.016, -1.056, 17:11:22.327
10, 0.00, 0.00, -1152.20, -286.41, -0.112, 0.016, -1.056, 17:11:22.327
11, 0.00, 0.00, -1264.68, -415.96, -0.112, 0.016, -1.056, 17:11:22.349
12, 0.00, 0.00, -1277.63, -379.64, -0.112, 0.016, -1.056, 17:11:22.349
13, 0.00, 0.00, -1160.41, -253.82, -0.112, 0.016, -1.056, 17:11:22.349
14, 0.00, 0.00, -1149.59, -285.73, -0.112, 0.016, -1.056, 17:11:22.349
15, 0.00, 0.00, -1271.00, -426.31, -0.112, 0.016, -1.056, 17:11:22.372
16, 0.00, 0.00, -1275.89, -398.72, -0.112, 0.016, -1.056, 17:11:22.372
17, 0.00, 0.00, -1159.10, -275.81, -0.112, 0.016, -1.056, 17:11:22.373
18, 0.00, 0.00, -1163.14, -317.34, -0.112, 0.016, -1.056, 17:11:22.373
19, 0.00, 0.00, -1272.07, -436.63, -0.112, 0.016, -1.056, 17:11:22.394
20, 0.00, 0.00, -1277.92, -398.68, -0.112, 0.016, -1.056, 17:11:22.394
21, 0.00, 0.00, -1162.03, -274.25, -0.112, 0.016, -1.056, 17:11:22.395
22, 0.00, 0.00, -1155.54, -309.80, -0.112, 0.016, -1.056, 17:11:22.395
25, 0.00, 0.00, -1054.61, -207.90, -0.112, 0.016, -1.056, 17:11:22.417
26, 0.00, 0.00, -1060.90, -247.27, -0.112, 0.016, -1.056, 17:11:22.417
27, 0.00, 0.00, -1154.43, -346.85, -0.112, 0.016, -1.056, 17:11:22.417
28, 0.00, 0.00, -1150.99, -305.72, -0.112, 0.016, -1.056, 17:11:22.417
29, 0.00, 0.00, -1057.64, -207.33, -0.112, 0.016, -1.056, 17:11:22.439
30, 0.00, 0.00, -1067.64, -248.37, -0.112, 0.016, -1.056, 17:11:22.440
31, 0.00, 0.00, -1160.85, -353.37, -0.112, 0.016, -1.056, 17:11:22.440
32, 0.00, 0.00, -1150.04, -300.81, -0.112, 0.016, -1.056, 17:11:22.440
33, 0.00, 0.00, -1046.98, -188.94, -0.112, 0.016, -1.056, 17:11:22.461
34, 0.00, 0.00, -1064.55, -244.57, -0.112, 0.016, -1.056, 17:11:22.462
35, 0.00, 0.00, -1137.70, -331.97, -0.112, 0.016, -1.056, 17:11:22.462
36, 0.00, 0.00, -1144.13, -297.48, -0.112, 0.016, -1.056, 17:11:22.462
37, 0.00, 0.00, -1027.36, -182.70, -0.112, 0.016, -1.056, 17:11:22.485
38, 0.00, 0.00, -1035.00, -222.63, -0.112, 0.016, -1.056, 17:11:22.485
39, 0.00, 0.00, -1134.77, -332.11, -0.112, 0.016, -1.056, 17:11:22.485
40, 0.00, 0.00, -1151.50, -308.86, -0.112, 0.016, -1.056, 17:11:22.485
43, 0.00, 0.00, -1251.41, -421.97, -0.112, 0.016, -1.056, 17:11:22.507
44, 0.00, 0.00, -1245.97, -373.57, -0.112, 0.016, -1.056, 17:11:22.507
45, 0.00, 0.00, -1146.06, -267.61, -0.112, 0.016, -1.056, 17:11:22.507
46, 0.00, 0.00, -1128.02, -291.70, -0.112, 0.016, -1.056, 17:11:22.508
47, 0.00, 0.00, -1232.91, -401.64, -0.112, 0.016, -1.056, 17:11:22.529
48, 0.00, 0.00, -1252.59, -383.78, -0.112, 0.016, -1.056, 17:11:22.529
49, 0.00, 0.00, -1166.47, -283.18, -0.112, 0.016, -1.056, 17:11:22.530
50, 0.00, 0.00, -1146.41, -304.18, -0.112, 0.016, -1.056, 17:11:22.530
51, 0.00, 0.00, -1245.68, -414.96, -0.112, 0.016, -1.056, 17:11:22.551
52, 0.00, 0.00, -1249.25, -384.37, -0.112, 0.016, -1.056, 17:11:22.552
53, 0.00, 0.00, -1133.78, -252.38, -0.112, 0.016, -1.056, 17:11:22.552
54, 0.00, 0.00, -1154.08, -301.81, -0.112, 0.016, -1.056, 17:11:22.552
55, 0.00, 0.00, -1263.21, -422.37, -0.112, 0.016, -1.056, 17:11:22.574
56, 0.00, 0.00, -1250.91, -384.01, -0.112, 0.016, -1.056, 17:11:22.574
57, 0.00, 0.00, -1134.26, -267.04, -0.112, 0.016, -1.056, 17:11:22.574
58, 0.00, 0.00, -1131.02, -287.53, -0.112, 0.016, -1.056, 17:11:22.575
61, 0.00, 0.00, -1034.25, -185.42, -0.112, 0.016, -1.056, 17:11:22.596
62, 0.00, 0.00, -1031.23, -229.10, -0.112, 0.016, -1.056, 17:11:22.597
63, 0.00, 0.00, -1139.20, -339.38, -0.112, 0.016, -1.056, 17:11:22.597
64, 0.00, 0.00, -1124.27, -279.11, -0.112, 0.016, -1.056, 17:11:22.597
65, 0.00, 0.00, -1025.34, -183.80, -0.112, 0.016, -1.056, 17:11:22.619
66, 0.00, 0.00, -1007.01, -195.35, -0.112, 0.016, -1.056, 17:11:22.620
67, 0.00, 0.00, -1147.04, -335.41, -0.112, 0.016, -1.056, 17:11:22.620
68, 0.00, 0.00, -1126.99, -282.45, -0.112, 0.016, -1.056, 17:11:22.620
